#Extended freq version of I2 spectra 
#Prepared from Forkey by Igor on 7-feb-05
#This version to evaluate Brillioun freq locking
#Freq(GHz) dlambda trans
  -45.06   42.51  0.8282
  -45.03   42.48  0.8355
  -45.00   42.45  0.8418
  -44.97   42.43  0.8469
  -44.94    42.4   0.851
  -44.91   42.37  0.8542
  -44.88   42.34  0.8567
  -44.85   42.31  0.8585
  -44.82   42.28  0.8598
  -44.79   42.26  0.8608
  -44.76   42.23  0.8614
  -44.73    42.2  0.8619
   -44.7   42.17  0.8622
  -44.67   42.14  0.8624
  -44.64   42.11  0.8625
  -44.61   42.09  0.8626
  -44.58   42.06  0.8626
  -44.55   42.03  0.8626
  -44.52      42  0.8626
  -44.49   41.97  0.8625
  -44.46   41.94  0.8624
  -44.43   41.92  0.8623
   -44.4   41.89  0.8621
  -44.37   41.86   0.862
  -44.34   41.83  0.8618
  -44.31    41.8  0.8617
  -44.28   41.77  0.8615
  -44.25   41.75  0.8613
  -44.22   41.72  0.8612
  -44.19   41.69   0.861
  -44.16   41.66  0.8609
  -44.13   41.63  0.8607
   -44.1    41.6  0.8606
  -44.07   41.58  0.8604
  -44.04   41.55  0.8602
  -44.01   41.52    0.86
  -43.98   41.49  0.8598
  -43.95   41.46  0.8595
  -43.92   41.43  0.8592
  -43.89   41.41  0.8589
  -43.86   41.38  0.8586
  -43.83   41.35  0.8583
   -43.8   41.32   0.858
  -43.77   41.29  0.8577
  -43.74   41.26  0.8573
  -43.71   41.24   0.857
  -43.68   41.21  0.8567
  -43.65   41.18  0.8564
  -43.62   41.15  0.8561
  -43.59   41.12  0.8558
  -43.56    41.1  0.8555
  -43.53   41.07  0.8552
   -43.5   41.04  0.8549
  -43.47   41.01  0.8547
  -43.44   40.98  0.8545
  -43.41   40.95  0.8543
  -43.38   40.93   0.854
  -43.35    40.9  0.8538
  -43.32   40.87  0.8536
  -43.29   40.84  0.8534
  -43.26   40.81  0.8532
  -43.23   40.78  0.8529
   -43.2   40.76  0.8527
  -43.17   40.73  0.8526
  -43.14    40.7  0.8524
  -43.11   40.67  0.8524
  -43.08   40.64  0.8524
  -43.05   40.61  0.8526
  -43.02   40.59  0.8528
  -42.99   40.56   0.853
  -42.96   40.53  0.8533
  -42.93    40.5  0.8535
   -42.9   40.47  0.8537
  -42.87   40.44  0.8537
  -42.84   40.42  0.8535
  -42.81   40.39  0.8532
  -42.78   40.36  0.8526
  -42.75   40.33  0.8517
  -42.72    40.3  0.8507
  -42.69   40.27  0.8494
  -42.66   40.25   0.848
  -42.63   40.22  0.8464
   -42.6   40.19  0.8446
  -42.57   40.16  0.8427
  -42.54   40.13  0.8407
  -42.51    40.1  0.8384
  -42.48   40.08  0.8359
  -42.45   40.05  0.8332
  -42.42   40.02  0.8302
  -42.39   39.99  0.8271
  -42.36   39.96  0.8238
  -42.33   39.93  0.8204
   -42.3   39.91  0.8171
  -42.27   39.88  0.8139
  -42.24   39.85  0.8111
  -42.21   39.82  0.8086
  -42.18   39.79  0.8066
  -42.15   39.76  0.8051
  -42.12   39.74   0.804
  -42.09   39.71  0.8035
  -42.06   39.68  0.8033
  -42.03   39.65  0.8035
     -42   39.62  0.8038
  -41.97    39.6  0.8044
  -41.94   39.57  0.8051
  -41.91   39.54  0.8058
  -41.88   39.51  0.8066
  -41.85   39.48  0.8075
  -41.82   39.45  0.8085
  -41.79   39.43  0.8097
  -41.76    39.4   0.811
  -41.73   39.37  0.8125
   -41.7   39.34  0.8141
  -41.67   39.31  0.8158
  -41.64   39.28  0.8175
  -41.61   39.26  0.8191
  -41.58   39.23  0.8206
  -41.55    39.2  0.8217
  -41.52   39.17  0.8226
  -41.49   39.14   0.823
  -41.46   39.11   0.823
  -41.43   39.09  0.8225
   -41.4   39.06  0.8216
  -41.37   39.03  0.8204
  -41.34      39  0.8189
  -41.31   38.97  0.8172
  -41.28   38.94  0.8155
  -41.25   38.92  0.8138
  -41.22   38.89  0.8122
  -41.19   38.86  0.8108
  -41.16   38.83  0.8096
  -41.13    38.8  0.8086
   -41.1   38.77  0.8079
  -41.07   38.75  0.8075
  -41.04   38.72  0.8074
  -41.01   38.69  0.8075
  -40.98   38.66  0.8079
  -40.95   38.63  0.8086
  -40.92    38.6  0.8096
  -40.89   38.58   0.811
  -40.86   38.55  0.8127
  -40.83   38.52  0.8148
   -40.8   38.49  0.8173
  -40.77   38.46  0.8201
  -40.74   38.43  0.8233
  -40.71   38.41  0.8268
  -40.68   38.38  0.8305
  -40.65   38.35  0.8344
  -40.62   38.32  0.8382
  -40.59   38.29   0.842
  -40.56   38.26  0.8455
  -40.53   38.24  0.8488
   -40.5   38.21  0.8518
  -40.47   38.18  0.8543
  -40.44   38.15  0.8565
  -40.41   38.12  0.8583
  -40.38    38.1  0.8596
  -40.35   38.07  0.8606
  -40.32   38.04  0.8613
  -40.29   38.01  0.8617
  -40.26   37.98  0.8618
  -40.23   37.95  0.8617
   -40.2   37.93  0.8613
  -40.17    37.9  0.8609
  -40.14   37.87  0.8603
  -40.11   37.84  0.8596
  -40.08   37.81  0.8589
  -40.05   37.78  0.8582
  -40.02   37.76  0.8575
  -39.99   37.73  0.8569
  -39.96    37.7  0.8563
  -39.93   37.67  0.8558
   -39.9   37.64  0.8554
  -39.87   37.61  0.8551
  -39.84   37.59  0.8547
  -39.81   37.56  0.8543
  -39.78   37.53  0.8538
  -39.75    37.5  0.8532
  -39.72   37.47  0.8524
  -39.69   37.44  0.8514
  -39.66   37.42  0.8501
  -39.63   37.39  0.8487
   -39.6   37.36  0.8471
  -39.57   37.33  0.8453
  -39.54    37.3  0.8433
  -39.51   37.27  0.8412
  -39.48   37.25   0.839
  -39.45   37.22  0.8366
  -39.42   37.19  0.8341
  -39.39   37.16  0.8313
  -39.36   37.13  0.8284
  -39.33    37.1  0.8253
   -39.3   37.08   0.822
  -39.27   37.05  0.8187
  -39.24   37.02  0.8153
  -39.21   36.99   0.812
  -39.18   36.96  0.8089
  -39.15   36.93  0.8062
  -39.12   36.91  0.8039
  -39.09   36.88  0.8022
  -39.06   36.85   0.801
  -39.03   36.82  0.8003
     -39   36.79  0.8002
  -38.97   36.76  0.8006
  -38.94   36.74  0.8014
  -38.91   36.71  0.8024
  -38.88   36.68  0.8038
  -38.85   36.65  0.8053
  -38.82   36.62  0.8069
  -38.79    36.6  0.8087
  -38.76   36.57  0.8106
  -38.73   36.54  0.8125
   -38.7   36.51  0.8146
  -38.67   36.48  0.8168
  -38.64   36.45   0.819
  -38.61   36.43  0.8213
  -38.58    36.4  0.8235
  -38.55   36.37  0.8256
  -38.52   36.34  0.8275
  -38.49   36.31  0.8292
  -38.46   36.28  0.8306
  -38.43   36.26  0.8316
   -38.4   36.23  0.8323
  -38.37    36.2  0.8326
  -38.34   36.17  0.8326
  -38.31   36.14  0.8321
  -38.28   36.11  0.8314
  -38.25   36.09  0.8302
  -38.22   36.06  0.8288
  -38.19   36.03  0.8272
  -38.16      36  0.8253
  -38.13   35.97  0.8233
   -38.1   35.94  0.8212
  -38.07   35.92  0.8191
  -38.04   35.89  0.8172
  -38.01   35.86  0.8154
  -37.98   35.83  0.8138
  -37.95    35.8  0.8125
  -37.92   35.77  0.8115
  -37.89   35.75  0.8107
  -37.86   35.72  0.8103
  -37.83   35.69  0.8101
   -37.8   35.66  0.8101
  -37.77   35.63  0.8103
  -37.74    35.6  0.8108
  -37.71   35.58  0.8114
  -37.68   35.55  0.8122
  -37.65   35.52  0.8133
  -37.62   35.49  0.8146
  -37.59   35.46  0.8162
  -37.56   35.43   0.818
  -37.53   35.41  0.8201
   -37.5   35.38  0.8225
  -37.47   35.35   0.825
  -37.44   35.32  0.8277
  -37.41   35.29  0.8303
  -37.38   35.26  0.8329
  -37.35   35.24  0.8353
  -37.32   35.21  0.8373
  -37.29   35.18  0.8389
  -37.26   35.15  0.8401
  -37.23   35.12  0.8407
   -37.2   35.09  0.8409
  -37.17   35.07  0.8405
  -37.14   35.04  0.8398
  -37.11   35.01  0.8387
  -37.08   34.98  0.8372
  -37.05   34.95  0.8356
  -37.02   34.93  0.8337
  -36.99    34.9  0.8317
  -36.96   34.87  0.8295
  -36.93   34.84  0.8272
   -36.9   34.81  0.8248
  -36.87   34.78  0.8221
  -36.84   34.76  0.8194
  -36.81   34.73  0.8164
  -36.78    34.7  0.8134
  -36.75   34.67  0.8103
  -36.72   34.64  0.8072
  -36.69   34.61  0.8042
  -36.66   34.59  0.8014
  -36.63   34.56  0.7988
   -36.6   34.53  0.7966
  -36.57    34.5  0.7947
  -36.54   34.47  0.7932
  -36.51   34.44   0.792
  -36.48   34.42  0.7912
  -36.45   34.39  0.7908
  -36.42   34.36  0.7907
  -36.39   34.33  0.7909
  -36.36    34.3  0.7914
  -36.33   34.27  0.7923
   -36.3   34.25  0.7935
  -36.27   34.22  0.7951
  -36.24   34.19  0.7972
  -36.21   34.16  0.7998
  -36.18   34.13  0.8028
  -36.15    34.1  0.8063
  -36.12   34.08  0.8102
  -36.09   34.05  0.8144
  -36.06   34.02  0.8188
  -36.03   33.99  0.8232
     -36   33.96  0.8275
  -35.97   33.93  0.8316
  -35.94   33.91  0.8351
  -35.91   33.88  0.8381
  -35.88   33.85  0.8403
  -35.85   33.82  0.8418
  -35.82   33.79  0.8425
  -35.79   33.76  0.8425
  -35.76   33.74  0.8417
  -35.73   33.71  0.8404
   -35.7   33.68  0.8385
  -35.67   33.65  0.8362
  -35.64   33.62  0.8335
  -35.61   33.59  0.8303
  -35.58   33.57  0.8262
  -35.55   33.54  0.8207
  -35.52   33.51  0.8129
  -35.49   33.48  0.8015
  -35.46   33.45  0.7848
  -35.43   33.43  0.7607
   -35.4    33.4   0.727
  -35.37   33.37  0.6819
  -35.34   33.34  0.6244
  -35.31   33.31  0.5549
  -35.28   33.28  0.4761
  -35.25   33.26  0.3924
  -35.22   33.23  0.3096
  -35.19    33.2  0.2335
  -35.16   33.17  0.1686
  -35.13   33.14  0.1168
   -35.1   33.11 0.07826
  -35.07   33.09 0.05107
  -35.04   33.06 0.03276
  -35.01   33.03 0.02083
  -34.98      33 0.01323
  -34.95   32.97 0.008424
  -34.92   32.94 0.00538
  -34.89   32.92 0.003435
  -34.86   32.89 0.002179
  -34.83   32.86 0.001362
   -34.8   32.83 0.0008337
  -34.77    32.8 0.0004966
  -34.74   32.77 0.0002874
  -34.71   32.75 0.0001623
  -34.68   32.72 9.019e-005
  -34.65   32.69 4.999e-005
  -34.62   32.66 2.81e-005
  -34.59   32.63 1.63e-005
  -34.56    32.6 9.928e-006
  -34.53   32.58 6.434e-006
   -34.5   32.55 4.48e-006
  -34.47   32.52 3.367e-006
  -34.44   32.49 2.731e-006
  -34.41   32.46 2.382e-006
  -34.38   32.43 2.222e-006
  -34.35   32.41 2.204e-006
  -34.32   32.38 2.311e-006
  -34.29   32.35 2.557e-006
  -34.26   32.32 2.989e-006
  -34.23   32.29 3.703e-006
   -34.2   32.26 4.895e-006
  -34.17   32.24 6.954e-006
  -34.14   32.21 1.068e-005
  -34.11   32.18 1.784e-005
  -34.08   32.15 3.238e-005
  -34.05   32.12 6.365e-005
  -34.02   32.09 0.0001341
  -33.99   32.07 0.0002988
  -33.96   32.04 0.0006904
  -33.93   32.01 0.001619
   -33.9   31.98 0.003769
  -33.87   31.95 0.008513
  -33.84   31.93 0.01831
  -33.81    31.9 0.03688
  -33.78   31.87 0.06885
  -33.75   31.84  0.1184
  -33.72   31.81  0.1871
  -33.69   31.78  0.2729
  -33.66   31.76  0.3695
  -33.63   31.73  0.4682
   -33.6    31.7  0.5607
  -33.57   31.67   0.641
  -33.54   31.64  0.7062
  -33.51   31.61   0.756
  -33.48   31.59  0.7923
  -33.45   31.56  0.8176
  -33.42   31.53  0.8346
  -33.39    31.5  0.8457
  -33.36   31.47  0.8527
  -33.33   31.44  0.8571
   -33.3   31.42  0.8597
  -33.27   31.39  0.8613
  -33.24   31.36  0.8622
  -33.21   31.33  0.8628
  -33.18    31.3  0.8631
  -33.15   31.27  0.8632
  -33.12   31.25  0.8633
  -33.09   31.22  0.8633
  -33.06   31.19  0.8632
  -33.03   31.16  0.8631
     -33   31.13   0.863
  -32.97    31.1  0.8629
  -32.94   31.08  0.8627
  -32.91   31.05  0.8625
  -32.88   31.02  0.8623
  -32.85   30.99   0.862
  -32.82   30.96  0.8617
  -32.79   30.93  0.8612
  -32.76   30.91  0.8605
  -32.73   30.88  0.8596
   -32.7   30.85  0.8582
  -32.67   30.82   0.856
  -32.64   30.79  0.8529
  -32.61   30.76  0.8483
  -32.58   30.74  0.8416
  -32.55   30.71  0.8322
  -32.52   30.68  0.8192
  -32.49   30.65  0.8016
  -32.46   30.62  0.7785
  -32.43   30.59  0.7492
   -32.4   30.57  0.7132
  -32.37   30.54  0.6708
  -32.34   30.51  0.6226
  -32.31   30.48  0.5702
  -32.28   30.45  0.5156
  -32.25   30.43  0.4612
  -32.22    30.4  0.4092
  -32.19   30.37  0.3617
  -32.16   30.34  0.3198
  -32.13   30.31  0.2843
   -32.1   30.28  0.2552
  -32.07   30.26  0.2319
  -32.04   30.23  0.2137
  -32.01    30.2  0.1993
  -31.98   30.17  0.1875
  -31.95   30.14  0.1769
  -31.92   30.11  0.1661
  -31.89   30.09  0.1539
  -31.86   30.06  0.1396
  -31.83   30.03  0.1231
   -31.8      30   0.105
  -31.77   29.97  0.0864
  -31.74   29.94 0.06851
  -31.71   29.92 0.05242
  -31.68   29.89 0.03878
  -31.65   29.86 0.02779
  -31.62   29.83  0.0193
  -31.59    29.8 0.01298
  -31.56   29.77 0.008436
  -31.53   29.75 0.005284
   -31.5   29.72 0.003182
  -31.47   29.69 0.001842
  -31.44   29.66 0.001028
  -31.41   29.63 0.0005581
  -31.38    29.6 0.0002984
  -31.35   29.58 0.00016
  -31.32   29.55 8.788e-005
  -31.29   29.52 5.061e-005
  -31.26   29.49 3.122e-005
  -31.23   29.46 2.101e-005
   -31.2   29.43 1.561e-005
  -31.17   29.41 1.289e-005
  -31.14   29.38 1.18e-005
  -31.11   29.35 1.189e-005
  -31.08   29.32 1.304e-005
  -31.05   29.29 1.535e-005
  -31.02   29.26 1.912e-005
  -30.99   29.24 2.497e-005
  -30.96   29.21 3.393e-005
  -30.93   29.18 4.788e-005
   -30.9   29.15 7.028e-005
  -30.87   29.12 0.0001077
  -30.84   29.09 0.000173
  -30.81   29.07 0.0002921
  -30.78   29.04 0.000518
  -30.75   29.01 0.0009605
  -30.72   28.98 0.001844
  -30.69   28.95 0.003617
  -30.66   28.93 0.007131
  -30.63    28.9 0.01389
   -30.6   28.87 0.02628
  -30.57   28.84  0.0476
  -30.54   28.81  0.0816
  -30.51   28.78  0.1314
  -30.48   28.76  0.1979
  -30.45   28.73  0.2792
  -30.42    28.7    0.37
  -30.39   28.67  0.4631
  -30.36   28.64  0.5516
  -30.33   28.61  0.6298
   -30.3   28.59  0.6949
  -30.27   28.56   0.746
  -30.24   28.53  0.7844
  -30.21    28.5  0.8119
  -30.18   28.47  0.8309
  -30.15   28.44  0.8436
  -30.12   28.42  0.8518
  -30.09   28.39   0.857
  -30.06   28.36  0.8602
  -30.03   28.33   0.862
     -30    28.3  0.8631
  -29.97   28.27  0.8637
  -29.94   28.25   0.864
  -29.91   28.22  0.8641
  -29.88   28.19  0.8642
  -29.85   28.16  0.8642
  -29.82   28.13  0.8641
  -29.79    28.1  0.8641
  -29.76   28.08   0.864
  -29.73   28.05  0.8639
   -29.7   28.02  0.8639
  -29.67   27.99  0.8638
  -29.64   27.96  0.8637
  -29.61   27.93  0.8637
  -29.58   27.91  0.8636
  -29.55   27.88  0.8635
  -29.52   27.85  0.8635
  -29.49   27.82  0.8634
  -29.46   27.79  0.8634
  -29.43   27.76  0.8633
   -29.4   27.74  0.8633
  -29.37   27.71  0.8632
  -29.34   27.68  0.8631
  -29.31   27.65  0.8631
  -29.28   27.62   0.863
  -29.25   27.59  0.8629
  -29.22   27.57  0.8629
  -29.19   27.54  0.8628
  -29.16   27.51  0.8628
  -29.13   27.48  0.8628
   -29.1   27.45  0.8628
  -29.07   27.43  0.8628
  -29.04    27.4  0.8628
  -29.01   27.37  0.8629
  -28.98   27.34   0.863
  -28.95   27.31  0.8631
  -28.92   27.28  0.8632
  -28.89   27.26  0.8634
  -28.86   27.23  0.8635
  -28.83    27.2  0.8637
   -28.8   27.17  0.8638
  -28.77   27.14  0.8639
  -28.74   27.11  0.8641
  -28.71   27.09  0.8642
  -28.68   27.06  0.8643
  -28.65   27.03  0.8644
  -28.62      27  0.8645
  -28.59   26.97  0.8646
  -28.56   26.94  0.8646
  -28.53   26.92  0.8647
   -28.5   26.89  0.8647
  -28.47   26.86  0.8648
  -28.44   26.83  0.8648
  -28.41    26.8  0.8648
  -28.38   26.77  0.8648
  -28.35   26.75  0.8648
  -28.32   26.72  0.8648
  -28.29   26.69  0.8648
  -28.26   26.66  0.8648
  -28.23   26.63  0.8648
   -28.2    26.6  0.8648
  -28.17   26.58  0.8648
  -28.14   26.55  0.8648
  -28.11   26.52  0.8648
  -28.08   26.49  0.8648
  -28.05   26.46  0.8648
  -28.02   26.43  0.8648
  -27.99   26.41  0.8647
  -27.96   26.38  0.8647
  -27.93   26.35  0.8647
   -27.9   26.32  0.8647
  -27.87   26.29  0.8647
  -27.84   26.26  0.8647
  -27.81   26.24  0.8647
  -27.78   26.21  0.8646
  -27.75   26.18  0.8646
  -27.72   26.15  0.8646
  -27.69   26.12  0.8646
  -27.66   26.09  0.8646
  -27.63   26.07  0.8646
   -27.6   26.04  0.8645
  -27.57   26.01  0.8645
  -27.54   25.98  0.8645
  -27.51   25.95  0.8645
  -27.48   25.92  0.8645
  -27.45    25.9  0.8645
  -27.42   25.87  0.8645
  -27.39   25.84  0.8645
  -27.36   25.81  0.8645
  -27.33   25.78  0.8644
   -27.3   25.76  0.8644
  -27.27   25.73  0.8644
  -27.24    25.7  0.8644
  -27.21   25.67  0.8644
  -27.18   25.64  0.8644
  -27.15   25.61  0.8644
  -27.12   25.59  0.8644
  -27.09   25.56  0.8644
  -27.06   25.53  0.8644
  -27.03    25.5  0.8644
     -27   25.47  0.8644
  -26.97   25.44  0.8644
  -26.94   25.42  0.8644
  -26.91   25.39  0.8644
  -26.88   25.36  0.8643
  -26.85   25.33  0.8643
  -26.82    25.3  0.8643
  -26.79   25.27  0.8643
  -26.76   25.25  0.8643
  -26.73   25.22  0.8643
   -26.7   25.19  0.8643
  -26.67   25.16  0.8643
  -26.64   25.13  0.8643
  -26.61    25.1  0.8643
  -26.58   25.08  0.8643
  -26.55   25.05  0.8643
  -26.52   25.02  0.8643
  -26.49   24.99  0.8644
  -26.46   24.96  0.8644
  -26.43   24.93  0.8644
   -26.4   24.91  0.8644
  -26.37   24.88  0.8645
  -26.34   24.85  0.8645
  -26.31   24.82  0.8645
  -26.28   24.79  0.8646
  -26.25   24.76  0.8646
  -26.22   24.74  0.8646
  -26.19   24.71  0.8647
  -26.16   24.68  0.8647
  -26.13   24.65  0.8647
   -26.1   24.62  0.8648
  -26.07   24.59  0.8648
  -26.04   24.57  0.8648
  -26.01   24.54  0.8648
  -25.98   24.51  0.8648
  -25.95   24.48  0.8648
  -25.92   24.45  0.8648
  -25.89   24.42  0.8649
  -25.86    24.4  0.8649
  -25.83   24.37  0.8649
   -25.8   24.34  0.8649
  -25.77   24.31  0.8649
  -25.74   24.28  0.8649
  -25.71   24.26  0.8649
  -25.68   24.23  0.8649
  -25.65    24.2  0.8649
  -25.62   24.17  0.8649
  -25.59   24.14  0.8649
  -25.56   24.11  0.8649
  -25.53   24.09  0.8649
   -25.5   24.06  0.8649
  -25.47   24.03  0.8649
  -25.44      24  0.8649
  -25.41   23.97  0.8649
  -25.38   23.94  0.8649
  -25.35   23.92  0.8649
  -25.32   23.89  0.8649
  -25.29   23.86  0.8649
  -25.26   23.83  0.8649
  -25.23    23.8  0.8649
   -25.2   23.77  0.8649
  -25.17   23.75  0.8649
  -25.14   23.72  0.8649
  -25.11   23.69  0.8649
  -25.08   23.66  0.8649
  -25.05   23.63  0.8649
  -25.02    23.6  0.8649
  -24.99   23.58  0.8649
  -24.96   23.55  0.8649
  -24.93   23.52  0.8649
   -24.9   23.49  0.8649
  -24.87   23.46  0.8649
  -24.84   23.43  0.8649
  -24.81   23.41  0.8649
  -24.78   23.38  0.8649
  -24.75   23.35  0.8649
  -24.72   23.32  0.8649
  -24.69   23.29  0.8649
  -24.66   23.26  0.8649
  -24.63   23.24  0.8649
   -24.6   23.21  0.8649
  -24.57   23.18  0.8649
  -24.54   23.15  0.8649
  -24.51   23.12  0.8649
  -24.48   23.09  0.8649
  -24.45   23.07  0.8649
  -24.42   23.04  0.8649
  -24.39   23.01  0.8649
  -24.36   22.98  0.8649
  -24.33   22.95  0.8649
   -24.3   22.92  0.8649
  -24.27    22.9  0.8649
  -24.24   22.87  0.8649
  -24.21   22.84  0.8649
  -24.18   22.81  0.8649
  -24.15   22.78  0.8649
  -24.12   22.76  0.8649
  -24.09   22.73  0.8649
  -24.06    22.7  0.8649
  -24.03   22.67  0.8649
     -24   22.64  0.8649
  -23.97   22.61  0.8649
  -23.94   22.59  0.8649
  -23.91   22.56  0.8649
  -23.88   22.53  0.8649
  -23.85    22.5  0.8649
  -23.82   22.47  0.8649
  -23.79   22.44  0.8649
  -23.76   22.42  0.8649
  -23.73   22.39  0.8649
   -23.7   22.36  0.8649
  -23.67   22.33  0.8649
  -23.64    22.3  0.8649
  -23.61   22.27  0.8649
  -23.58   22.25  0.8649
  -23.55   22.22  0.8649
  -23.52   22.19  0.8649
  -23.49   22.16  0.8649
  -23.46   22.13  0.8649
  -23.43    22.1  0.8649
   -23.4   22.08  0.8649
  -23.37   22.05  0.8649
  -23.34   22.02  0.8649
  -23.31   21.99  0.8649
  -23.28   21.96  0.8649
  -23.25   21.93  0.8649
  -23.22   21.91  0.8649
  -23.19   21.88  0.8649
  -23.16   21.85  0.8649
  -23.13   21.82  0.8649
   -23.1   21.79  0.8649
  -23.07   21.76  0.8649
  -23.04   21.74  0.8649
  -23.01   21.71  0.8649
  -22.98   21.68  0.8649
  -22.95   21.65  0.8649
  -22.92   21.62  0.8649
  -22.89   21.59  0.8649
  -22.86   21.57  0.8649
  -22.83   21.54  0.8649
   -22.8   21.51  0.8649
  -22.77   21.48  0.8649
  -22.74   21.45  0.8649
  -22.71   21.42  0.8649
  -22.68    21.4  0.8649
  -22.65   21.37  0.8649
  -22.62   21.34  0.8649
  -22.59   21.31  0.8649
  -22.56   21.28  0.8649
  -22.53   21.26  0.8649
   -22.5   21.23  0.8649
  -22.47    21.2  0.8649
  -22.44   21.17  0.8649
  -22.41   21.14  0.8648
  -22.38   21.11  0.8648
  -22.35   21.09  0.8648
  -22.32   21.06  0.8648
  -22.29   21.03  0.8648
  -22.26      21  0.8648
  -22.23   20.97  0.8647
   -22.2   20.94  0.8646
  -22.17   20.92  0.8646
  -22.14   20.89  0.8645
  -22.11   20.86  0.8644
  -22.08   20.83  0.8642
  -22.05    20.8   0.864
  -22.02   20.77  0.8638
  -21.99   20.75  0.8636
  -21.96   20.72  0.8634
  -21.93   20.69  0.8631
   -21.9   20.66  0.8628
  -21.87   20.63  0.8624
  -21.84    20.6  0.8621
  -21.81   20.58  0.8617
  -21.78   20.55  0.8613
  -21.75   20.52  0.8609
  -21.72   20.49  0.8605
  -21.69   20.46    0.86
  -21.66   20.43  0.8595
  -21.63   20.41  0.8589
   -21.6   20.38  0.8583
  -21.57   20.35  0.8576
  -21.54   20.32  0.8568
  -21.51   20.29  0.8559
  -21.48   20.26  0.8549
  -21.45   20.24  0.8536
  -21.42   20.21  0.8521
  -21.39   20.18  0.8501
  -21.36   20.15  0.8474
  -21.33   20.12  0.8438
   -21.3   20.09  0.8389
  -21.27   20.07   0.832
  -21.24   20.04  0.8226
  -21.21   20.01  0.8099
  -21.18   19.98  0.7931
  -21.15   19.95  0.7716
  -21.12   19.92  0.7447
  -21.09    19.9  0.7124
  -21.06   19.87  0.6746
  -21.03   19.84  0.6321
     -21   19.81   0.586
  -20.97   19.78  0.5376
  -20.94   19.76  0.4886
  -20.91   19.73  0.4404
  -20.88    19.7  0.3944
  -20.85   19.67  0.3514
  -20.82   19.64   0.312
  -20.79   19.61  0.2763
  -20.76   19.59   0.244
  -20.73   19.56   0.215
   -20.7   19.53  0.1889
  -20.67    19.5  0.1652
  -20.64   19.47  0.1438
  -20.61   19.44  0.1244
  -20.58   19.42  0.1071
  -20.55   19.39 0.09177
  -20.52   19.36 0.07847
  -20.49   19.33 0.06716
  -20.46    19.3 0.05774
  -20.43   19.27 0.05005
   -20.4   19.25 0.04393
  -20.37   19.22 0.03914
  -20.34   19.19 0.03551
  -20.31   19.16 0.03282
  -20.28   19.13 0.03094
  -20.25    19.1 0.02974
  -20.22   19.08 0.02912
  -20.19   19.05 0.02902
  -20.16   19.02 0.02944
  -20.13   18.99 0.03039
   -20.1   18.96 0.03195
  -20.07   18.93 0.03426
  -20.04   18.91  0.0375
  -20.01   18.88 0.04198
  -19.98   18.85 0.04808
  -19.95   18.82 0.05634
  -19.92   18.79 0.06746
  -19.89   18.76 0.08233
  -19.86   18.74   0.102
  -19.83   18.71  0.1276
   -19.8   18.68  0.1604
  -19.77   18.65  0.2011
  -19.74   18.62  0.2503
  -19.71   18.59  0.3074
  -19.68   18.57  0.3709
  -19.65   18.54  0.4386
  -19.62   18.51  0.5073
  -19.59   18.48  0.5738
  -19.56   18.45   0.635
  -19.53   18.42  0.6888
   -19.5    18.4   0.734
  -19.47   18.37  0.7705
  -19.44   18.34  0.7986
  -19.41   18.31  0.8196
  -19.38   18.28  0.8347
  -19.35   18.26  0.8453
  -19.32   18.23  0.8523
  -19.29    18.2   0.857
  -19.26   18.17  0.8599
  -19.23   18.14  0.8617
   -19.2   18.11  0.8627
  -19.17   18.09  0.8633
  -19.14   18.06  0.8636
  -19.11   18.03  0.8638
  -19.08      18  0.8638
  -19.05   17.97  0.8638
  -19.02   17.94  0.8637
  -18.99   17.92  0.8636
  -18.96   17.89  0.8635
  -18.93   17.86  0.8633
   -18.9   17.83  0.8632
  -18.87    17.8   0.863
  -18.84   17.77  0.8629
  -18.81   17.75  0.8627
  -18.78   17.72  0.8625
  -18.75   17.69  0.8624
  -18.72   17.66  0.8622
  -18.69   17.63   0.862
  -18.66    17.6  0.8619
  -18.63   17.58  0.8617
   -18.6   17.55  0.8616
  -18.57   17.52  0.8615
  -18.54   17.49  0.8614
  -18.51   17.46  0.8612
  -18.48   17.43  0.8611
  -18.45   17.41   0.861
  -18.42   17.38  0.8608
  -18.39   17.35  0.8607
  -18.36   17.32  0.8606
  -18.33   17.29  0.8605
   -18.3   17.26  0.8604
  -18.27   17.24  0.8603
  -18.24   17.21  0.8603
  -18.21   17.18  0.8603
  -18.18   17.15  0.8603
  -18.15   17.12  0.8603
  -18.12   17.09  0.8604
  -18.09   17.07  0.8605
  -18.06   17.04  0.8606
  -18.03   17.01  0.8607
     -18   16.98  0.8607
  -17.97   16.95  0.8608
  -17.94   16.92  0.8609
  -17.91    16.9  0.8609
  -17.88   16.87   0.861
  -17.85   16.84   0.861
  -17.82   16.81   0.861
  -17.79   16.78   0.861
  -17.76   16.76  0.8609
  -17.73   16.73  0.8609
   -17.7    16.7  0.8608
  -17.67   16.67  0.8607
  -17.64   16.64  0.8606
  -17.61   16.61  0.8604
  -17.58   16.59  0.8603
  -17.55   16.56    0.86
  -17.52   16.53  0.8597
  -17.49    16.5  0.8593
  -17.46   16.47  0.8589
  -17.43   16.44  0.8583
   -17.4   16.42  0.8576
  -17.37   16.39  0.8567
  -17.34   16.36  0.8556
  -17.31   16.33  0.8542
  -17.28    16.3  0.8523
  -17.25   16.27  0.8497
  -17.22   16.25  0.8461
  -17.19   16.22  0.8411
  -17.16   16.19   0.834
  -17.13   16.16  0.8243
   -17.1   16.13  0.8111
  -17.07    16.1  0.7936
  -17.04   16.08  0.7711
  -17.01   16.05  0.7431
  -16.98   16.02  0.7095
  -16.95   15.99  0.6709
  -16.92   15.96  0.6281
  -16.89   15.93  0.5829
  -16.86   15.91  0.5372
  -16.83   15.88  0.4928
   -16.8   15.85  0.4517
  -16.77   15.82  0.4152
  -16.74   15.79  0.3841
  -16.71   15.76  0.3588
  -16.68   15.74   0.339
  -16.65   15.71  0.3242
  -16.62   15.68  0.3132
  -16.59   15.65  0.3047
  -16.56   15.62   0.297
  -16.53   15.59  0.2883
   -16.5   15.57   0.277
  -16.47   15.54  0.2616
  -16.44   15.51  0.2419
  -16.41   15.48  0.2183
  -16.38   15.45  0.1918
  -16.35   15.42  0.1643
  -16.32    15.4  0.1374
  -16.29   15.37  0.1123
  -16.26   15.34 0.08989
  -16.23   15.31 0.07048
   -16.2   15.28 0.05409
  -16.17   15.25 0.04053
  -16.14   15.23 0.02957
  -16.11    15.2 0.02095
  -16.08   15.17 0.01439
  -16.05   15.14 0.009592
  -16.02   15.11 0.006239
  -15.99   15.09 0.003995
  -15.96   15.06 0.00255
  -15.93   15.03 0.001648
   -15.9      15 0.001096
  -15.87   14.97 0.0007626
  -15.84   14.94 0.0005629
  -15.81   14.92 0.0004451
  -15.78   14.89 0.0003789
  -15.75   14.86 0.0003471
  -15.72   14.83 0.0003407
  -15.69    14.8 0.0003555
  -15.66   14.77 0.0003905
  -15.63   14.75 0.0004474
   -15.6   14.72 0.0005307
  -15.57   14.69 0.0006487
  -15.54   14.66 0.0008157
  -15.51   14.63 0.001056
  -15.48    14.6 0.001412
  -15.45   14.58 0.001953
  -15.42   14.55 0.002802
  -15.39   14.52 0.004164
  -15.36   14.49 0.006384
  -15.33   14.46 0.01002
   -15.3   14.43 0.01594
  -15.27   14.41 0.02537
  -15.24   14.38 0.03987
  -15.21   14.35 0.06109
  -15.18   14.32  0.0903
  -15.15   14.29  0.1277
  -15.12   14.26  0.1721
  -15.09   14.24  0.2206
  -15.06   14.21  0.2695
  -15.03   14.18  0.3152
     -15   14.15  0.3553
  -14.97   14.12  0.3884
  -14.94   14.09  0.4147
  -14.91   14.07  0.4349
  -14.88   14.04  0.4501
  -14.85   14.01  0.4609
  -14.82   13.98  0.4675
  -14.79   13.95  0.4696
  -14.76   13.92  0.4666
  -14.73    13.9  0.4578
   -14.7   13.87  0.4429
  -14.67   13.84   0.422
  -14.64   13.81  0.3958
  -14.61   13.78  0.3657
  -14.58   13.75  0.3333
  -14.55   13.73  0.2999
  -14.52    13.7  0.2668
  -14.49   13.67  0.2348
  -14.46   13.64  0.2044
  -14.43   13.61  0.1759
   -14.4   13.59  0.1493
  -14.37   13.56  0.1249
  -14.34   13.53  0.1027
  -14.31    13.5 0.08299
  -14.28   13.47 0.06603
  -14.25   13.44 0.05191
  -14.22   13.42 0.04054
  -14.19   13.39  0.0317
  -14.16   13.36 0.02504
  -14.13   13.33 0.02016
   -14.1    13.3 0.01669
  -14.07   13.27  0.0143
  -14.04   13.25 0.01274
  -14.01   13.22 0.01182
  -13.98   13.19  0.0114
  -13.95   13.16 0.01141
  -13.92   13.13 0.01178
  -13.89    13.1  0.0125
  -13.86   13.08 0.01356
  -13.83   13.05 0.01498
   -13.8   13.02 0.01684
  -13.77   12.99 0.01925
  -13.74   12.96  0.0224
  -13.71   12.93 0.02657
  -13.68   12.91 0.03218
  -13.65   12.88 0.03979
  -13.62   12.85  0.0502
  -13.59   12.82 0.06441
  -13.56   12.79 0.08367
  -13.53   12.76  0.1094
   -13.5   12.74  0.1429
  -13.47   12.71  0.1853
  -13.44   12.68  0.2369
  -13.41   12.65  0.2972
  -13.38   12.62  0.3641
  -13.35   12.59  0.4347
  -13.32   12.57  0.5056
  -13.29   12.54   0.573
  -13.26   12.51  0.6341
  -13.23   12.48  0.6867
   -13.2   12.45  0.7301
  -13.17   12.42  0.7643
  -13.14    12.4  0.7903
  -13.11   12.37  0.8093
  -13.08   12.34  0.8226
  -13.05   12.31  0.8317
  -13.02   12.28  0.8375
  -12.99   12.25  0.8412
  -12.96   12.23  0.8433
  -12.93    12.2  0.8444
   -12.9   12.17  0.8448
  -12.87   12.14  0.8448
  -12.84   12.11  0.8447
  -12.81   12.09  0.8444
  -12.78   12.06   0.844
  -12.75   12.03  0.8437
  -12.72      12  0.8433
  -12.69   11.97   0.843
  -12.66   11.94  0.8427
  -12.63   11.92  0.8424
   -12.6   11.89  0.8421
  -12.57   11.86  0.8419
  -12.54   11.83  0.8417
  -12.51    11.8  0.8416
  -12.48   11.77  0.8416
  -12.45   11.75  0.8416
  -12.42   11.72  0.8417
  -12.39   11.69  0.8418
  -12.36   11.66  0.8419
  -12.33   11.63  0.8421
   -12.3    11.6  0.8422
  -12.27   11.58  0.8423
  -12.24   11.55  0.8424
  -12.21   11.52  0.8424
  -12.18   11.49  0.8423
  -12.15   11.46  0.8422
  -12.12   11.43  0.8418
  -12.09   11.41  0.8413
  -12.06   11.38  0.8406
  -12.03   11.35  0.8395
     -12   11.32  0.8382
  -11.97   11.29  0.8365
  -11.94   11.26  0.8345
  -11.91   11.24  0.8322
  -11.88   11.21  0.8296
  -11.85   11.18  0.8268
  -11.82   11.15  0.8238
  -11.79   11.12  0.8209
  -11.76   11.09  0.8179
  -11.73   11.07  0.8152
   -11.7   11.04  0.8126
  -11.67   11.01  0.8103
  -11.64   10.98  0.8084
  -11.61   10.95  0.8068
  -11.58   10.92  0.8055
  -11.55    10.9  0.8045
  -11.52   10.87  0.8038
  -11.49   10.84  0.8034
  -11.46   10.81  0.8033
  -11.43   10.78  0.8035
   -11.4   10.75   0.804
  -11.37   10.73  0.8047
  -11.34    10.7  0.8056
  -11.31   10.67  0.8068
  -11.28   10.64  0.8081
  -11.25   10.61  0.8096
  -11.22   10.59  0.8112
  -11.19   10.56  0.8129
  -11.16   10.53  0.8145
  -11.13    10.5   0.816
   -11.1   10.47  0.8173
  -11.07   10.44  0.8184
  -11.04   10.42  0.8192
  -11.01   10.39  0.8196
  -10.98   10.36  0.8196
  -10.95   10.33   0.819
  -10.92    10.3  0.8179
  -10.89   10.27  0.8163
  -10.86   10.25   0.814
  -10.83   10.22  0.8111
   -10.8   10.19  0.8076
  -10.77   10.16  0.8035
  -10.74   10.13  0.7989
  -10.71    10.1  0.7939
  -10.68   10.08  0.7885
  -10.65   10.05   0.783
  -10.62   10.02  0.7775
  -10.59   9.991  0.7722
  -10.56   9.962  0.7672
  -10.53   9.934  0.7626
   -10.5   9.906  0.7586
  -10.47   9.878  0.7553
  -10.44   9.849  0.7527
  -10.41   9.821   0.751
  -10.38   9.793    0.75
  -10.35   9.764  0.7498
  -10.32   9.736  0.7504
  -10.29   9.708  0.7517
  -10.26   9.679  0.7537
  -10.23   9.651  0.7564
   -10.2   9.623  0.7597
  -10.17   9.595  0.7635
  -10.14   9.566  0.7679
  -10.11   9.538  0.7728
  -10.08    9.51  0.7782
  -10.05   9.481  0.7841
  -10.02   9.453  0.7902
   -9.99   9.425  0.7967
   -9.96   9.396  0.8033
   -9.93   9.368  0.8099
    -9.9    9.34  0.8164
   -9.87   9.311  0.8226
   -9.84   9.283  0.8285
   -9.81   9.255  0.8339
   -9.78   9.227  0.8386
   -9.75   9.198  0.8426
   -9.72    9.17  0.8459
   -9.69   9.142  0.8482
   -9.66   9.113  0.8497
   -9.63   9.085  0.8501
    -9.6   9.057  0.8496
   -9.57   9.028  0.8481
   -9.54       9  0.8456
   -9.51   8.972  0.8422
   -9.48   8.944  0.8379
   -9.45   8.915  0.8328
   -9.42   8.887  0.8271
   -9.39   8.859  0.8207
   -9.36    8.83  0.8139
   -9.33   8.802  0.8068
    -9.3   8.774  0.7994
   -9.27   8.745  0.7918
   -9.24   8.717  0.7841
   -9.21   8.689  0.7762
   -9.18   8.661  0.7681
   -9.15   8.632  0.7599
   -9.12   8.604  0.7514
   -9.09   8.576  0.7426
   -9.06   8.547  0.7337
   -9.03   8.519  0.7246
      -9   8.491  0.7156
   -8.97   8.462  0.7067
   -8.94   8.434  0.6982
   -8.91   8.406  0.6903
   -8.88   8.378  0.6831
   -8.85   8.349  0.6768
   -8.82   8.321  0.6715
   -8.79   8.293  0.6672
   -8.76   8.264   0.664
   -8.73   8.236  0.6617
    -8.7   8.208  0.6605
   -8.67   8.179  0.6602
   -8.64   8.151  0.6608
   -8.61   8.123  0.6623
   -8.58   8.094  0.6648
   -8.55   8.066  0.6683
   -8.52   8.038   0.673
   -8.49    8.01  0.6788
   -8.46   7.981   0.686
   -8.43   7.953  0.6945
    -8.4   7.925  0.7043
   -8.37   7.896  0.7152
   -8.34   7.868  0.7272
   -8.31    7.84    0.74
   -8.28   7.811  0.7531
   -8.25   7.783  0.7662
   -8.22   7.755  0.7789
   -8.19   7.727  0.7908
   -8.16   7.698  0.8015
   -8.13    7.67  0.8107
    -8.1   7.642  0.8182
   -8.07   7.613  0.8241
   -8.04   7.585  0.8282
   -8.01   7.557  0.8308
   -7.98   7.528  0.8322
   -7.95     7.5  0.8326
   -7.92   7.472  0.8323
   -7.89   7.444  0.8316
   -7.86   7.415  0.8308
   -7.83   7.387  0.8299
    -7.8   7.359  0.8291
   -7.77    7.33  0.8283
   -7.74   7.302  0.8273
   -7.71   7.274   0.826
   -7.68   7.245  0.8242
   -7.65   7.217  0.8214
   -7.62   7.189  0.8176
   -7.59   7.161  0.8126
   -7.56   7.132  0.8061
   -7.53   7.104  0.7983
    -7.5   7.076  0.7892
   -7.47   7.047  0.7788
   -7.44   7.019  0.7675
   -7.41   6.991  0.7552
   -7.38   6.962  0.7421
   -7.35   6.934  0.7284
   -7.32   6.906   0.714
   -7.29   6.877   0.699
   -7.26   6.849  0.6832
   -7.23   6.821  0.6669
    -7.2   6.793  0.6499
   -7.17   6.764  0.6324
   -7.14   6.736  0.6146
   -7.11   6.708  0.5969
   -7.08   6.679  0.5796
   -7.05   6.651  0.5631
   -7.02   6.623  0.5478
   -6.99   6.594   0.534
   -6.96   6.566   0.522
   -6.93   6.538  0.5119
    -6.9    6.51  0.5039
   -6.87   6.481  0.4978
   -6.84   6.453  0.4937
   -6.81   6.425  0.4914
   -6.78   6.396  0.4906
   -6.75   6.368  0.4914
   -6.72    6.34  0.4936
   -6.69   6.311  0.4971
   -6.66   6.283   0.502
   -6.63   6.255  0.5084
    -6.6   6.227  0.5164
   -6.57   6.198  0.5261
   -6.54    6.17  0.5376
   -6.51   6.142  0.5511
   -6.48   6.113  0.5667
   -6.45   6.085  0.5841
   -6.42   6.057  0.6034
   -6.39   6.028  0.6242
   -6.36       6  0.6461
   -6.33   5.972  0.6686
    -6.3   5.944  0.6913
   -6.27   5.915  0.7135
   -6.24   5.887  0.7347
   -6.21   5.859  0.7544
   -6.18    5.83  0.7721
   -6.15   5.802  0.7875
   -6.12   5.774  0.8005
   -6.09   5.745  0.8107
   -6.06   5.717  0.8183
   -6.03   5.689  0.8233
      -6    5.66  0.8256
   -5.97   5.632  0.8254
   -5.94   5.604  0.8227
   -5.91   5.576  0.8176
   -5.88   5.547  0.8103
   -5.85   5.519  0.8009
   -5.82   5.491  0.7895
   -5.79   5.462  0.7764
   -5.76   5.434   0.762
   -5.73   5.406  0.7464
    -5.7   5.377  0.7301
   -5.67   5.349  0.7134
   -5.64   5.321  0.6965
   -5.61   5.293  0.6797
   -5.58   5.264   0.663
   -5.55   5.236  0.6465
   -5.52   5.208  0.6301
   -5.49   5.179  0.6138
   -5.46   5.151  0.5975
   -5.43   5.123  0.5811
    -5.4   5.094  0.5648
   -5.37   5.066  0.5487
   -5.34   5.038  0.5329
   -5.31    5.01  0.5178
   -5.28   4.981  0.5037
   -5.25   4.953  0.4908
   -5.22   4.925  0.4794
   -5.19   4.896  0.4697
   -5.16   4.868  0.4618
   -5.13    4.84  0.4558
    -5.1   4.811  0.4515
   -5.07   4.783   0.449
   -5.04   4.755   0.448
   -5.01   4.727  0.4486
   -4.98   4.698  0.4506
   -4.95    4.67  0.4541
   -4.92   4.642  0.4591
   -4.89   4.613  0.4658
   -4.86   4.585  0.4744
   -4.83   4.557  0.4851
    -4.8   4.528   0.498
   -4.77     4.5  0.5135
   -4.74   4.472  0.5315
   -4.71   4.443  0.5521
   -4.68   4.415  0.5751
   -4.65   4.387  0.6001
   -4.62   4.359  0.6267
   -4.59    4.33  0.6543
   -4.56   4.302   0.682
   -4.53   4.274  0.7092
    -4.5   4.245  0.7351
   -4.47   4.217   0.759
   -4.44   4.189  0.7804
   -4.41    4.16   0.799
   -4.38   4.132  0.8147
   -4.35   4.104  0.8275
   -4.32   4.076  0.8377
   -4.29   4.047  0.8455
   -4.26   4.019  0.8514
   -4.23   3.991  0.8556
    -4.2   3.962  0.8586
   -4.17   3.934  0.8606
   -4.14   3.906  0.8619
   -4.11   3.877  0.8627
   -4.08   3.849  0.8632
   -4.05   3.821  0.8634
   -4.02   3.793  0.8635
   -3.99   3.764  0.8634
   -3.96   3.736  0.8633
   -3.93   3.708  0.8632
    -3.9   3.679  0.8631
   -3.87   3.651  0.8629
   -3.84   3.623  0.8627
   -3.81   3.594  0.8625
   -3.78   3.566  0.8623
   -3.75   3.538   0.862
   -3.72   3.509  0.8618
   -3.69   3.481  0.8615
   -3.66   3.453  0.8613
   -3.63   3.425   0.861
    -3.6   3.396  0.8607
   -3.57   3.368  0.8605
   -3.54    3.34  0.8602
   -3.51   3.311    0.86
   -3.48   3.283  0.8598
   -3.45   3.255  0.8596
   -3.42   3.226  0.8594
   -3.39   3.198  0.8593
   -3.36    3.17  0.8591
   -3.33   3.142   0.859
    -3.3   3.113   0.859
   -3.27   3.085  0.8589
   -3.24   3.057  0.8589
   -3.21   3.028  0.8589
   -3.18       3  0.8589
   -3.15   2.972  0.8589
   -3.12   2.943   0.859
   -3.09   2.915  0.8592
   -3.06   2.887  0.8593
   -3.03   2.859  0.8595
      -3    2.83  0.8598
   -2.97   2.802    0.86
   -2.94   2.774  0.8603
   -2.91   2.745  0.8606
   -2.88   2.717  0.8609
   -2.85   2.689  0.8611
   -2.82    2.66  0.8614
   -2.79   2.632  0.8616
   -2.76   2.604  0.8617
   -2.73   2.576  0.8619
    -2.7   2.547  0.8619
   -2.67   2.519  0.8619
   -2.64   2.491  0.8619
   -2.61   2.462  0.8618
   -2.58   2.434  0.8617
   -2.55   2.406  0.8615
   -2.52   2.377  0.8613
   -2.49   2.349  0.8611
   -2.46   2.321  0.8608
   -2.43   2.292  0.8605
    -2.4   2.264  0.8602
   -2.37   2.236  0.8599
   -2.34   2.208  0.8595
   -2.31   2.179  0.8591
   -2.28   2.151  0.8586
   -2.25   2.123   0.858
   -2.22   2.094  0.8573
   -2.19   2.066  0.8562
   -2.16   2.038  0.8548
   -2.13   2.009  0.8529
    -2.1   1.981  0.8502
   -2.07   1.953  0.8467
   -2.04   1.925  0.8422
   -2.01   1.896  0.8364
   -1.98   1.868  0.8292
   -1.95    1.84  0.8206
   -1.92   1.811  0.8107
   -1.89   1.783  0.7995
   -1.86   1.755  0.7875
   -1.83   1.726   0.775
    -1.8   1.698  0.7626
   -1.77    1.67  0.7509
   -1.74   1.642  0.7403
   -1.71   1.613  0.7313
   -1.68   1.585  0.7242
   -1.65   1.557   0.719
   -1.62   1.528  0.7156
   -1.59     1.5  0.7136
   -1.56   1.472  0.7122
   -1.53   1.443  0.7108
    -1.5   1.415  0.7085
   -1.47   1.387  0.7043
   -1.44   1.359  0.6976
   -1.41    1.33  0.6879
   -1.38   1.302   0.675
   -1.35   1.274  0.6592
   -1.32   1.245  0.6407
   -1.29   1.217    0.62
   -1.26   1.189  0.5975
   -1.23    1.16  0.5737
    -1.2   1.132  0.5485
   -1.17   1.104   0.522
   -1.14   1.075  0.4938
   -1.11   1.047  0.4635
   -1.08   1.019  0.4306
   -1.05  0.9906  0.3951
   -1.02  0.9623   0.357
   -0.99   0.934  0.3169
   -0.96  0.9057  0.2756
   -0.93  0.8774  0.2344
    -0.9  0.8491  0.1946
   -0.87  0.8208  0.1577
   -0.84  0.7925  0.1247
   -0.81  0.7642 0.09637
   -0.78  0.7359 0.07288
   -0.75  0.7076  0.0541
   -0.72  0.6793 0.03959
   -0.69   0.651 0.02867
   -0.66  0.6227 0.02064
   -0.63  0.5944 0.01484
    -0.6   0.566 0.01069
   -0.57  0.5377 0.007728
   -0.54  0.5094 0.005606
   -0.51  0.4811 0.004076
   -0.48  0.4528 0.002962
   -0.45  0.4245 0.002143
   -0.42  0.3962 0.001539
   -0.39  0.3679 0.001095
   -0.36  0.3396 0.0007723
   -0.33  0.3113 0.0005412
    -0.3   0.283 0.000379
   -0.27  0.2547 0.0002673
   -0.24  0.2264 0.0001915
   -0.21  0.1981 0.0001408
   -0.18  0.1698 0.0001072
   -0.15  0.1415 8.507e-005
   -0.12  0.1132 7.068e-005
   -0.09 0.08491 6.162e-005
   -0.06  0.0566 5.634e-005
   -0.03  0.0283 5.395e-005
       0       0 5.398e-005
    0.03 -0.0283 5.631e-005
    0.06 -0.0566 6.124e-005
    0.09 -0.08491 6.95e-005
    0.12 -0.1132 8.257e-005
    0.15 -0.1415 0.0001031
    0.18 -0.1698 0.0001362
    0.21 -0.1981 0.0001908
    0.24 -0.2264 0.0002846
    0.27 -0.2547 0.0004515
     0.3  -0.283 0.0007593
    0.33 -0.3113 0.001343
    0.36 -0.3396 0.002468
    0.39 -0.3679 0.004649
    0.42 -0.3962 0.008826
    0.45 -0.4245  0.0166
    0.48 -0.4528 0.03044
    0.51 -0.4811 0.05365
    0.54 -0.5094 0.08984
    0.57 -0.5377  0.1419
     0.6  -0.566  0.2105
    0.63 -0.5944  0.2932
    0.66 -0.6227  0.3847
    0.69  -0.651  0.4777
    0.72 -0.6793  0.5652
    0.75 -0.7076   0.642
    0.78 -0.7359  0.7053
    0.81 -0.7642  0.7545
    0.84 -0.7925   0.791
    0.87 -0.8208  0.8168
     0.9 -0.8491  0.8344
    0.93 -0.8774   0.846
    0.96 -0.9057  0.8533
    0.99  -0.934  0.8579
    1.02 -0.9623  0.8606
    1.05 -0.9906  0.8621
    1.08  -1.019   0.863
    1.11  -1.047  0.8634
    1.14  -1.075  0.8637
    1.17  -1.104  0.8638
     1.2  -1.132  0.8638
    1.23   -1.16  0.8638
    1.26  -1.189  0.8638
    1.29  -1.217  0.8638
    1.32  -1.245  0.8638
    1.35  -1.274  0.8637
    1.38  -1.302  0.8637
    1.41   -1.33  0.8636
    1.44  -1.359  0.8635
    1.47  -1.387  0.8634
     1.5  -1.415  0.8632
    1.53  -1.443   0.863
    1.56  -1.472  0.8627
    1.59    -1.5  0.8624
    1.62  -1.528  0.8621
    1.65  -1.557  0.8617
    1.68  -1.585  0.8613
    1.71  -1.613   0.861
    1.74  -1.642  0.8607
    1.77   -1.67  0.8604
     1.8  -1.698  0.8602
    1.83  -1.726  0.8601
    1.86  -1.755    0.86
    1.89  -1.783    0.86
    1.92  -1.811    0.86
    1.95   -1.84    0.86
    1.98  -1.868    0.86
    2.01  -1.896  0.8599
    2.04  -1.925  0.8597
    2.07  -1.953  0.8594
     2.1  -1.981   0.859
    2.13  -2.009  0.8584
    2.16  -2.038  0.8577
    2.19  -2.066  0.8569
    2.22  -2.094  0.8559
    2.25  -2.123  0.8549
    2.28  -2.151  0.8538
    2.31  -2.179  0.8526
    2.34  -2.208  0.8512
    2.37  -2.236  0.8498
     2.4  -2.264  0.8482
    2.43  -2.292  0.8464
    2.46  -2.321  0.8445
    2.49  -2.349  0.8423
    2.52  -2.377  0.8399
    2.55  -2.406  0.8373
    2.58  -2.434  0.8347
    2.61  -2.462  0.8319
    2.64  -2.491  0.8292
    2.67  -2.519  0.8265
     2.7  -2.547  0.8241
    2.73  -2.576  0.8219
    2.76  -2.604  0.8201
    2.79  -2.632  0.8187
    2.82   -2.66  0.8176
    2.85  -2.689  0.8169
    2.88  -2.717  0.8166
    2.91  -2.745  0.8165
    2.94  -2.774  0.8166
    2.97  -2.802  0.8169
       3   -2.83  0.8173
    3.03  -2.859  0.8178
    3.06  -2.887  0.8183
    3.09  -2.915  0.8189
    3.12  -2.943  0.8195
    3.15  -2.972  0.8201
    3.18      -3  0.8207
    3.21  -3.028  0.8214
    3.24  -3.057  0.8221
    3.27  -3.085  0.8227
     3.3  -3.113  0.8231
    3.33  -3.142  0.8233
    3.36   -3.17  0.8231
    3.39  -3.198  0.8225
    3.42  -3.226  0.8213
    3.45  -3.255  0.8194
    3.48  -3.283  0.8169
    3.51  -3.311  0.8137
    3.54   -3.34  0.8099
    3.57  -3.368  0.8057
     3.6  -3.396  0.8012
    3.63  -3.425  0.7966
    3.66  -3.453  0.7921
    3.69  -3.481   0.788
    3.72  -3.509  0.7843
    3.75  -3.538  0.7812
    3.78  -3.566  0.7789
    3.81  -3.594  0.7774
    3.84  -3.623  0.7766
    3.87  -3.651  0.7765
     3.9  -3.679  0.7769
    3.93  -3.708  0.7777
    3.96  -3.736  0.7786
    3.99  -3.764  0.7795
    4.02  -3.793  0.7802
    4.05  -3.821  0.7806
    4.08  -3.849  0.7805
    4.11  -3.877  0.7799
    4.14  -3.906  0.7787
    4.17  -3.934  0.7771
     4.2  -3.962  0.7749
    4.23  -3.991  0.7722
    4.26  -4.019  0.7689
    4.29  -4.047  0.7651
    4.32  -4.076  0.7605
    4.35  -4.104   0.755
    4.38  -4.132  0.7485
    4.41   -4.16  0.7409
    4.44  -4.189  0.7322
    4.47  -4.217  0.7225
     4.5  -4.245  0.7119
    4.53  -4.274  0.7008
    4.56  -4.302  0.6894
    4.59   -4.33  0.6784
    4.62  -4.359   0.668
    4.65  -4.387  0.6587
    4.68  -4.415  0.6509
    4.71  -4.443  0.6447
    4.74  -4.472  0.6403
    4.77    -4.5  0.6377
     4.8  -4.528  0.6367
    4.83  -4.557  0.6373
    4.86  -4.585  0.6391
    4.89  -4.613  0.6422
    4.92  -4.642  0.6461
    4.95   -4.67   0.651
    4.98  -4.698  0.6568
    5.01  -4.727  0.6635
    5.04  -4.755  0.6711
    5.07  -4.783  0.6799
     5.1  -4.811  0.6898
    5.13   -4.84  0.7008
    5.16  -4.868  0.7129
    5.19  -4.896   0.726
    5.22  -4.925  0.7397
    5.25  -4.953  0.7538
    5.28  -4.981   0.768
    5.31   -5.01  0.7818
    5.34  -5.038  0.7948
    5.37  -5.066  0.8068
     5.4  -5.094  0.8176
    5.43  -5.123   0.827
    5.46  -5.151  0.8349
    5.49  -5.179  0.8414
    5.52  -5.208  0.8466
    5.55  -5.236  0.8507
    5.58  -5.264  0.8537
    5.61  -5.293  0.8559
    5.64  -5.321  0.8575
    5.67  -5.349  0.8586
     5.7  -5.377  0.8594
    5.73  -5.406  0.8599
    5.76  -5.434  0.8602
    5.79  -5.462  0.8604
    5.82  -5.491  0.8606
    5.85  -5.519  0.8607
    5.88  -5.547  0.8609
    5.91  -5.576   0.861
    5.94  -5.604  0.8612
    5.97  -5.632  0.8614
       6   -5.66  0.8616
    6.03  -5.689  0.8618
    6.06  -5.717   0.862
    6.09  -5.745  0.8622
    6.12  -5.774  0.8624
    6.15  -5.802  0.8626
    6.18   -5.83  0.8628
    6.21  -5.859   0.863
    6.24  -5.887  0.8632
    6.27  -5.915  0.8634
     6.3  -5.944  0.8635
    6.33  -5.972  0.8636
    6.36      -6  0.8637
    6.39  -6.028  0.8638
    6.42  -6.057  0.8639
    6.45  -6.085  0.8639
    6.48  -6.113  0.8639
    6.51  -6.142  0.8639
    6.54   -6.17  0.8639
    6.57  -6.198  0.8639
     6.6  -6.227  0.8639
    6.63  -6.255  0.8638
    6.66  -6.283  0.8638
    6.69  -6.311  0.8638
    6.72   -6.34  0.8637
    6.75  -6.368  0.8637
    6.78  -6.396  0.8636
    6.81  -6.425  0.8636
    6.84  -6.453  0.8635
    6.87  -6.481  0.8635
     6.9   -6.51  0.8635
    6.93  -6.538  0.8634
    6.96  -6.566  0.8634
    6.99  -6.594  0.8633
    7.02  -6.623  0.8633
    7.05  -6.651  0.8632
    7.08  -6.679  0.8632
    7.11  -6.708  0.8632
    7.14  -6.736  0.8631
    7.17  -6.764  0.8631
     7.2  -6.793  0.8631
    7.23  -6.821  0.8631
    7.26  -6.849  0.8631
    7.29  -6.877  0.8631
    7.32  -6.906  0.8631
    7.35  -6.934  0.8631
    7.38  -6.962  0.8631
    7.41  -6.991   0.863
    7.44  -7.019   0.863
    7.47  -7.047   0.863
     7.5  -7.076  0.8629
    7.53  -7.104  0.8629
    7.56  -7.132  0.8628
    7.59  -7.161  0.8628
    7.62  -7.189  0.8627
    7.65  -7.217  0.8627
    7.68  -7.245  0.8626
    7.71  -7.274  0.8626
    7.74  -7.302  0.8626
    7.77   -7.33  0.8626
     7.8  -7.359  0.8626
    7.83  -7.387  0.8626
    7.86  -7.415  0.8626
    7.89  -7.444  0.8626
    7.92  -7.472  0.8626
    7.95    -7.5  0.8626
    7.98  -7.528  0.8627
    8.01  -7.557  0.8627
    8.04  -7.585  0.8628
    8.07  -7.613  0.8629
     8.1  -7.642   0.863
    8.13   -7.67  0.8632
    8.16  -7.698  0.8633
    8.19  -7.727  0.8634
    8.22  -7.755  0.8636
    8.25  -7.783  0.8637
    8.28  -7.811  0.8638
    8.31   -7.84  0.8638
    8.34  -7.868  0.8639
    8.37  -7.896  0.8639
     8.4  -7.925  0.8639
    8.43  -7.953  0.8638
    8.46  -7.981  0.8638
    8.49   -8.01  0.8637
    8.52  -8.038  0.8636
    8.55  -8.066  0.8635
    8.58  -8.094  0.8634
    8.61  -8.123  0.8633
    8.64  -8.151  0.8631
    8.67  -8.179   0.863
     8.7  -8.208  0.8628
    8.73  -8.236  0.8626
    8.76  -8.264  0.8624
    8.79  -8.293  0.8622
    8.82  -8.321   0.862
    8.85  -8.349  0.8617
    8.88  -8.378  0.8615
    8.91  -8.406  0.8613
    8.94  -8.434  0.8612
    8.97  -8.462  0.8611
       9  -8.491   0.861
    9.03  -8.519  0.8609
    9.06  -8.547  0.8609
    9.09  -8.576  0.8609
    9.12  -8.604  0.8609
    9.15  -8.632  0.8609
    9.18  -8.661   0.861
    9.21  -8.689  0.8611
    9.24  -8.717  0.8612
    9.27  -8.745  0.8613
     9.3  -8.774  0.8615
    9.33  -8.802  0.8616
    9.36   -8.83  0.8618
    9.39  -8.859   0.862
    9.42  -8.887  0.8621
    9.45  -8.915  0.8623
    9.48  -8.944  0.8625
    9.51  -8.972  0.8626
    9.54      -9  0.8627
    9.57  -9.028  0.8627
     9.6  -9.057  0.8627
    9.63  -9.085  0.8626
    9.66  -9.113  0.8624
    9.69  -9.142  0.8621
    9.72   -9.17  0.8617
    9.75  -9.198  0.8612
    9.78  -9.227  0.8606
    9.81  -9.255  0.8599
    9.84  -9.283  0.8591
    9.87  -9.311  0.8582
     9.9   -9.34  0.8573
    9.93  -9.368  0.8563
    9.96  -9.396  0.8552
    9.99  -9.425   0.854
   10.02  -9.453  0.8527
   10.05  -9.481  0.8513
   10.08   -9.51  0.8498
   10.11  -9.538  0.8482
   10.14  -9.566  0.8464
   10.17  -9.595  0.8446
    10.2  -9.623  0.8427
   10.23  -9.651  0.8407
   10.26  -9.679  0.8387
   10.29  -9.708  0.8367
   10.32  -9.736  0.8347
   10.35  -9.764  0.8328
   10.38  -9.793   0.831
   10.41  -9.821  0.8293
   10.44  -9.849  0.8278
   10.47  -9.878  0.8264
    10.5  -9.906  0.8252
   10.53  -9.934  0.8242
   10.56  -9.962  0.8233
   10.59  -9.991  0.8226
   10.62  -10.02  0.8221
   10.65  -10.05  0.8218
   10.68  -10.08  0.8217
   10.71   -10.1  0.8218
   10.74  -10.13  0.8221
   10.77  -10.16  0.8227
    10.8  -10.19  0.8236
   10.83  -10.22  0.8247
   10.86  -10.25  0.8261
   10.89  -10.27  0.8277
   10.92   -10.3  0.8296
   10.95  -10.33  0.8315
   10.98  -10.36  0.8333
   11.01  -10.39   0.835
   11.04  -10.42  0.8363
   11.07  -10.44  0.8371
    11.1  -10.47   0.837
   11.13   -10.5  0.8358
   11.16  -10.53  0.8333
   11.19  -10.56  0.8294
   11.22  -10.59  0.8238
   11.25  -10.61  0.8166
   11.28  -10.64  0.8077
   11.31  -10.67  0.7973
   11.34   -10.7  0.7855
   11.37  -10.73  0.7727
    11.4  -10.75  0.7591
   11.43  -10.78   0.745
   11.46  -10.81  0.7307
   11.49  -10.84  0.7162
   11.52  -10.87  0.7017
   11.55   -10.9  0.6872
   11.58  -10.92  0.6726
   11.61  -10.95  0.6578
   11.64  -10.98  0.6427
   11.67  -11.01  0.6273
    11.7  -11.04  0.6116
   11.73  -11.07  0.5957
   11.76  -11.09  0.5799
   11.79  -11.12  0.5644
   11.82  -11.15  0.5494
   11.85  -11.18  0.5353
   11.88  -11.21  0.5222
   11.91  -11.24  0.5102
   11.94  -11.26  0.4993
   11.97  -11.29  0.4894
      12  -11.32  0.4805
   12.03  -11.35  0.4723
   12.06  -11.38  0.4648
   12.09  -11.41  0.4578
   12.12  -11.43  0.4513
   12.15  -11.46  0.4454
   12.18  -11.49  0.4403
   12.21  -11.52  0.4362
   12.24  -11.55  0.4332
   12.27  -11.58  0.4317
    12.3   -11.6  0.4317
   12.33  -11.63  0.4332
   12.36  -11.66  0.4362
   12.39  -11.69  0.4404
   12.42  -11.72  0.4455
   12.45  -11.75   0.451
   12.48  -11.77  0.4565
   12.51   -11.8  0.4614
   12.54  -11.83  0.4654
   12.57  -11.86  0.4682
    12.6  -11.89  0.4697
   12.63  -11.92  0.4701
   12.66  -11.94  0.4695
   12.69  -11.97  0.4682
   12.72     -12  0.4665
   12.75  -12.03  0.4647
   12.78  -12.06   0.463
   12.81  -12.09  0.4617
   12.84  -12.11  0.4609
   12.87  -12.14  0.4606
    12.9  -12.17  0.4611
   12.93   -12.2  0.4624
   12.96  -12.23  0.4646
   12.99  -12.25  0.4681
   13.02  -12.28  0.4729
   13.05  -12.31  0.4793
   13.08  -12.34  0.4877
   13.11  -12.37  0.4982
   13.14   -12.4  0.5109
   13.17  -12.42   0.526
    13.2  -12.45  0.5433
   13.23  -12.48  0.5627
   13.26  -12.51  0.5837
   13.29  -12.54   0.606
   13.32  -12.57   0.629
   13.35  -12.59   0.652
   13.38  -12.62  0.6744
   13.41  -12.65  0.6956
   13.44  -12.68  0.7151
   13.47  -12.71  0.7326
    13.5  -12.74   0.748
   13.53  -12.76  0.7613
   13.56  -12.79  0.7724
   13.59  -12.82  0.7817
   13.62  -12.85  0.7894
   13.65  -12.88  0.7958
   13.68  -12.91   0.801
   13.71  -12.93  0.8053
   13.74  -12.96   0.809
   13.77  -12.99  0.8121
    13.8  -13.02  0.8149
   13.83  -13.05  0.8175
   13.86  -13.08  0.8198
   13.89   -13.1  0.8222
   13.92  -13.13  0.8245
   13.95  -13.16  0.8269
   13.98  -13.19  0.8294
   14.01  -13.22  0.8318
   14.04  -13.25  0.8343
   14.07  -13.27  0.8367
    14.1   -13.3   0.839
   14.13  -13.33   0.841
   14.16  -13.36  0.8428
   14.19  -13.39  0.8442
   14.22  -13.42  0.8453
   14.25  -13.44  0.8459
   14.28  -13.47  0.8462
   14.31   -13.5  0.8461
   14.34  -13.53  0.8457
   14.37  -13.56   0.845
    14.4  -13.59  0.8441
   14.43  -13.61   0.843
   14.46  -13.64  0.8417
   14.49  -13.67  0.8402
   14.52   -13.7  0.8386
   14.55  -13.73  0.8368
   14.58  -13.75  0.8348
   14.61  -13.78  0.8328
   14.64  -13.81  0.8306
   14.67  -13.84  0.8285
    14.7  -13.87  0.8264
   14.73   -13.9  0.8243
   14.76  -13.92  0.8225
   14.79  -13.95  0.8208
   14.82  -13.98  0.8195
   14.85  -14.01  0.8184
   14.88  -14.04  0.8176
   14.91  -14.07   0.817
   14.94  -14.09  0.8168
   14.97  -14.12  0.8167
      15  -14.15  0.8169
   15.03  -14.18  0.8173
   15.06  -14.21  0.8179
   15.09  -14.24  0.8187
   15.12  -14.26  0.8198
   15.15  -14.29  0.8211
   15.18  -14.32  0.8227
   15.21  -14.35  0.8246
   15.24  -14.38  0.8268
   15.27  -14.41  0.8294
    15.3  -14.43  0.8322
   15.33  -14.46  0.8352
   15.36  -14.49  0.8383
   15.39  -14.52  0.8415
   15.42  -14.55  0.8447
   15.45  -14.58  0.8478
   15.48   -14.6  0.8506
   15.51  -14.63  0.8532
   15.54  -14.66  0.8556
   15.57  -14.69  0.8576
    15.6  -14.72  0.8593
   15.63  -14.75  0.8607
   15.66  -14.77  0.8618
   15.69   -14.8  0.8627
   15.72  -14.83  0.8633
   15.75  -14.86  0.8638
   15.78  -14.89  0.8642
   15.81  -14.92  0.8644
   15.84  -14.94  0.8646
   15.87  -14.97  0.8647
    15.9     -15  0.8648
   15.93  -15.03  0.8648
   15.96  -15.06  0.8648
   15.99  -15.09  0.8648
   16.02  -15.11  0.8649
   16.05  -15.14  0.8649
   16.08  -15.17  0.8649
   16.11   -15.2  0.8649
   16.14  -15.23  0.8649
   16.17  -15.25  0.8649
    16.2  -15.28  0.8649
   16.23  -15.31  0.8649
   16.26  -15.34  0.8649
   16.29  -15.37  0.8649
   16.32   -15.4  0.8649
   16.35  -15.42  0.8649
   16.38  -15.45  0.8649
   16.41  -15.48  0.8649
   16.44  -15.51  0.8649
   16.47  -15.54  0.8649
    16.5  -15.57  0.8649
   16.53  -15.59  0.8649
   16.56  -15.62  0.8649
   16.59  -15.65  0.8649
   16.62  -15.68  0.8649
   16.65  -15.71  0.8649
   16.68  -15.74  0.8649
   16.71  -15.76  0.8649
   16.74  -15.79  0.8649
   16.77  -15.82  0.8649
    16.8  -15.85  0.8649
   16.83  -15.88  0.8649
   16.86  -15.91  0.8649
   16.89  -15.93  0.8649
   16.92  -15.96  0.8649
   16.95  -15.99  0.8649
   16.98  -16.02  0.8649
   17.01  -16.05  0.8649
   17.04  -16.08  0.8649
   17.07   -16.1  0.8649
    17.1  -16.13  0.8649
   17.13  -16.16  0.8649
   17.16  -16.19  0.8649
   17.19  -16.22  0.8649
   17.22  -16.25  0.8649
   17.25  -16.27  0.8649
   17.28   -16.3  0.8649
   17.31  -16.33  0.8649
   17.34  -16.36  0.8649
   17.37  -16.39  0.8649
    17.4  -16.42  0.8649
   17.43  -16.44  0.8649
   17.46  -16.47  0.8649
   17.49   -16.5  0.8649
   17.52  -16.53  0.8649
   17.55  -16.56  0.8649
   17.58  -16.59  0.8649
   17.61  -16.61  0.8649
   17.64  -16.64  0.8649
   17.67  -16.67  0.8649
    17.7   -16.7  0.8649
   17.73  -16.73  0.8649
   17.76  -16.76  0.8649
   17.79  -16.78  0.8649
   17.82  -16.81  0.8649
   17.85  -16.84  0.8649
   17.88  -16.87  0.8649
   17.91   -16.9  0.8649
   17.94  -16.92  0.8649
   17.97  -16.95  0.8649
      18  -16.98  0.8649
   18.03  -17.01  0.8649
   18.06  -17.04  0.8649
   18.09  -17.07  0.8649
   18.12  -17.09  0.8649
   18.15  -17.12  0.8649
   18.18  -17.15  0.8649
   18.21  -17.18  0.8649
   18.24  -17.21  0.8649
   18.27  -17.24  0.8649
    18.3  -17.26  0.8649
   18.33  -17.29  0.8649
   18.36  -17.32  0.8649
   18.39  -17.35  0.8649
   18.42  -17.38  0.8649
   18.45  -17.41  0.8649
   18.48  -17.43  0.8649
   18.51  -17.46  0.8649
   18.54  -17.49  0.8649
   18.57  -17.52  0.8649
    18.6  -17.55  0.8649
   18.63  -17.58  0.8649
   18.66   -17.6  0.8649
   18.69  -17.63  0.8649
   18.72  -17.66  0.8649
   18.75  -17.69  0.8649
   18.78  -17.72  0.8649
   18.81  -17.75  0.8649
   18.84  -17.77  0.8649
   18.87   -17.8  0.8649
    18.9  -17.83  0.8649
   18.93  -17.86  0.8649
   18.96  -17.89  0.8649
   18.99  -17.92  0.8649
   19.02  -17.94  0.8649
   19.05  -17.97  0.8649
   19.08     -18  0.8649
   19.11  -18.03  0.8649
   19.14  -18.06  0.8649
   19.17  -18.09  0.8649
    19.2  -18.11  0.8649
   19.23  -18.14  0.8649
   19.26  -18.17  0.8649
   19.29   -18.2  0.8649
   19.32  -18.23  0.8649
   19.35  -18.26  0.8649
   19.38  -18.28  0.8649
   19.41  -18.31  0.8649
   19.44  -18.34  0.8649
   19.47  -18.37  0.8649
    19.5   -18.4  0.8649
   19.53  -18.42  0.8649
   19.56  -18.45  0.8649
   19.59  -18.48  0.8649
   19.62  -18.51  0.8649
   19.65  -18.54  0.8649
   19.68  -18.57  0.8649
   19.71  -18.59  0.8649
   19.74  -18.62  0.8649
   19.77  -18.65  0.8649
    19.8  -18.68  0.8649
   19.83  -18.71  0.8649
   19.86  -18.74  0.8649
   19.89  -18.76  0.8649
   19.92  -18.79  0.8649
   19.95  -18.82  0.8649
   19.98  -18.85  0.8649
   20.01  -18.88  0.8649
   20.04  -18.91  0.8649
   20.07  -18.93  0.8649
    20.1  -18.96  0.8649
   20.13  -18.99  0.8649
   20.16  -19.02  0.8649
   20.19  -19.05  0.8649
   20.22  -19.08  0.8649
   20.25   -19.1  0.8649
   20.28  -19.13  0.8649
   20.31  -19.16  0.8649
   20.34  -19.19  0.8649
   20.37  -19.22  0.8649
    20.4  -19.25  0.8649
   20.43  -19.27  0.8649
   20.46   -19.3  0.8649
   20.49  -19.33  0.8649
   20.52  -19.36  0.8649
   20.55  -19.39  0.8649
   20.58  -19.42  0.8649
   20.61  -19.44  0.8649
   20.64  -19.47  0.8649
   20.67   -19.5  0.8649
    20.7  -19.53  0.8649
   20.73  -19.56  0.8649
   20.76  -19.59  0.8649
   20.79  -19.61  0.8649
   20.82  -19.64  0.8649
   20.85  -19.67  0.8649
   20.88   -19.7  0.8649
   20.91  -19.73  0.8649
   20.94  -19.76  0.8649
   20.97  -19.78  0.8649
      21  -19.81  0.8649
   21.03  -19.84  0.8649
   21.06  -19.87  0.8649
   21.09   -19.9  0.8649
   21.12  -19.92  0.8649
   21.15  -19.95  0.8649
   21.18  -19.98  0.8649
   21.21  -20.01  0.8649
   21.24  -20.04  0.8649
   21.27  -20.07  0.8649
    21.3  -20.09  0.8649
   21.33  -20.12  0.8649
   21.36  -20.15  0.8649
   21.39  -20.18  0.8649
   21.42  -20.21  0.8649
   21.45  -20.24  0.8649
   21.48  -20.26  0.8649
   21.51  -20.29  0.8649
   21.54  -20.32  0.8649
   21.57  -20.35  0.8649
    21.6  -20.38  0.8649
   21.63  -20.41  0.8649
   21.66  -20.43  0.8649
   21.69  -20.46  0.8649
   21.72  -20.49  0.8649
   21.75  -20.52  0.8649
   21.78  -20.55  0.8649
   21.81  -20.58  0.8649
   21.84   -20.6  0.8649
   21.87  -20.63  0.8649
    21.9  -20.66  0.8649
   21.93  -20.69  0.8649
   21.96  -20.72  0.8649
   21.99  -20.75  0.8649
   22.02  -20.77  0.8649
   22.05   -20.8  0.8649
   22.08  -20.83  0.8649
   22.11  -20.86  0.8649
   22.14  -20.89  0.8649
   22.17  -20.92  0.8649
    22.2  -20.94  0.8649
   22.23  -20.97  0.8649
   22.26     -21  0.8649
   22.29  -21.03  0.8649
   22.32  -21.06  0.8649
   22.35  -21.09  0.8649
   22.38  -21.11  0.8649
   22.41  -21.14  0.8649
   22.44  -21.17  0.8649
   22.47   -21.2  0.8649
    22.5  -21.23  0.8649
   22.53  -21.26  0.8649
   22.56  -21.28  0.8649
   22.59  -21.31  0.8649
   22.62  -21.34  0.8649
   22.65  -21.37  0.8649
   22.68   -21.4  0.8649
   22.71  -21.42  0.8649
   22.74  -21.45  0.8649
   22.77  -21.48  0.8649
    22.8  -21.51  0.8649
   22.83  -21.54  0.8649
   22.86  -21.57  0.8649
   22.89  -21.59  0.8649
   22.92  -21.62  0.8649
   22.95  -21.65  0.8649
   22.98  -21.68  0.8649
   23.01  -21.71  0.8649
   23.04  -21.74  0.8649
   23.07  -21.76  0.8649
    23.1  -21.79  0.8649
   23.13  -21.82  0.8649
   23.16  -21.85  0.8649
   23.19  -21.88  0.8649
   23.22  -21.91  0.8649
   23.25  -21.93  0.8649
   23.28  -21.96  0.8649
   23.31  -21.99  0.8649
   23.34  -22.02  0.8649
   23.37  -22.05  0.8649
    23.4  -22.08  0.8649
   23.43   -22.1  0.8649
   23.46  -22.13  0.8649
   23.49  -22.16  0.8649
   23.52  -22.19  0.8649
   23.55  -22.22  0.8649
   23.58  -22.25  0.8649
   23.61  -22.27  0.8649
   23.64   -22.3  0.8649
   23.67  -22.33  0.8649
    23.7  -22.36  0.8649
   23.73  -22.39  0.8649
   23.76  -22.42  0.8649
   23.79  -22.44  0.8649
   23.82  -22.47  0.8649
   23.85   -22.5  0.8649
   23.88  -22.53  0.8649
   23.91  -22.56  0.8649
   23.94  -22.59  0.8649
   23.97  -22.61  0.8649
      24  -22.64  0.8649
   24.03  -22.67  0.8649
   24.06   -22.7  0.8649
   24.09  -22.73  0.8649
   24.12  -22.76  0.8649
   24.15  -22.78  0.8649
   24.18  -22.81  0.8649
   24.21  -22.84  0.8649
   24.24  -22.87  0.8649
   24.27   -22.9  0.8649
    24.3  -22.92  0.8649
   24.33  -22.95  0.8649
   24.36  -22.98  0.8649
   24.39  -23.01  0.8649
   24.42  -23.04  0.8649
   24.45  -23.07  0.8649
   24.48  -23.09  0.8649
   24.51  -23.12  0.8649
   24.54  -23.15  0.8649
   24.57  -23.18  0.8649
    24.6  -23.21  0.8649
   24.63  -23.24  0.8649
   24.66  -23.26  0.8649
   24.69  -23.29  0.8649
   24.72  -23.32  0.8649
   24.75  -23.35  0.8649
   24.78  -23.38  0.8649
   24.81  -23.41  0.8649
   24.84  -23.43  0.8649
   24.87  -23.46  0.8649
    24.9  -23.49  0.8649
   24.93  -23.52  0.8649
   24.96  -23.55  0.8649
   24.99  -23.58  0.8649
   25.02   -23.6  0.8649
   25.05  -23.63  0.8649
   25.08  -23.66  0.8649
   25.11  -23.69  0.8649
   25.14  -23.72  0.8649
   25.17  -23.75  0.8649
    25.2  -23.77  0.8649
   25.23   -23.8  0.8649
   25.26  -23.83  0.8649
   25.29  -23.86  0.8649
   25.32  -23.89  0.8649
   25.35  -23.92  0.8649
   25.38  -23.94  0.8649
   25.41  -23.97  0.8649
   25.44     -24  0.8649
   25.47  -24.03  0.8649
    25.5  -24.06  0.8649
   25.53  -24.09  0.8649
   25.56  -24.11  0.8649
   25.59  -24.14  0.8649
   25.62  -24.17  0.8649
   25.65   -24.2  0.8649
   25.68  -24.23  0.8649
   25.71  -24.26  0.8649
   25.74  -24.28  0.8649
   25.77  -24.31  0.8649
    25.8  -24.34  0.8649
   25.83  -24.37  0.8649
   25.86   -24.4  0.8649
   25.89  -24.42  0.8649
   25.92  -24.45  0.8649
   25.95  -24.48  0.8649
   25.98  -24.51  0.8649
   26.01  -24.54  0.8649
   26.04  -24.57  0.8649
   26.07  -24.59  0.8649
    26.1  -24.62  0.8649
   26.13  -24.65  0.8649
   26.16  -24.68  0.8649
   26.19  -24.71  0.8649
   26.22  -24.74  0.8649
   26.25  -24.76  0.8649
   26.28  -24.79  0.8649
   26.31  -24.82  0.8649
   26.34  -24.85  0.8649
   26.37  -24.88  0.8649
    26.4  -24.91  0.8649
   26.43  -24.93  0.8649
   26.46  -24.96  0.8649
   26.49  -24.99  0.8649
   26.52  -25.02  0.8649
   26.55  -25.05  0.8649
   26.58  -25.08  0.8649
   26.61   -25.1  0.8649
   26.64  -25.13  0.8649
   26.67  -25.16  0.8649
    26.7  -25.19  0.8649
   26.73  -25.22  0.8649
   26.76  -25.25  0.8649
   26.79  -25.27  0.8649
   26.82   -25.3  0.8649
   26.85  -25.33  0.8649
   26.88  -25.36  0.8649
   26.91  -25.39  0.8649
   26.94  -25.42  0.8649
   26.97  -25.44  0.8649
      27  -25.47  0.8649
   27.03   -25.5  0.8649
   27.06  -25.53  0.8649
   27.09  -25.56  0.8649
   27.12  -25.59  0.8649
   27.15  -25.61  0.8649
   27.18  -25.64  0.8649
   27.21  -25.67  0.8649
   27.24   -25.7  0.8649
   27.27  -25.73  0.8649
    27.3  -25.76  0.8649
   27.33  -25.78  0.8649
   27.36  -25.81  0.8649
   27.39  -25.84  0.8649
   27.42  -25.87  0.8649
   27.45   -25.9  0.8649
   27.48  -25.92  0.8649
   27.51  -25.95  0.8649
   27.54  -25.98  0.8649
   27.57  -26.01  0.8649
    27.6  -26.04  0.8649
   27.63  -26.07  0.8649
   27.66  -26.09  0.8649
   27.69  -26.12  0.8649
   27.72  -26.15  0.8649
   27.75  -26.18  0.8649
   27.78  -26.21  0.8649
   27.81  -26.24  0.8649
   27.84  -26.26  0.8649
   27.87  -26.29  0.8649
    27.9  -26.32  0.8649
   27.93  -26.35  0.8649
   27.96  -26.38  0.8649
   27.99  -26.41  0.8649
   28.02  -26.43  0.8649
   28.05  -26.46  0.8649
   28.08  -26.49  0.8649
   28.11  -26.52  0.8649
   28.14  -26.55  0.8649
   28.17  -26.58  0.8649
    28.2   -26.6  0.8649
   28.23  -26.63  0.8649
   28.26  -26.66  0.8649
   28.29  -26.69  0.8649
   28.32  -26.72  0.8649
   28.35  -26.75  0.8649
   28.38  -26.77  0.8649
   28.41   -26.8  0.8649
   28.44  -26.83  0.8649
   28.47  -26.86  0.8649
    28.5  -26.89  0.8649
   28.53  -26.92  0.8649
   28.56  -26.94  0.8649
   28.59  -26.97  0.8649
   28.62     -27  0.8649
   28.65  -27.03  0.8649
   28.68  -27.06  0.8649
   28.71  -27.09  0.8649
   28.74  -27.11  0.8649
   28.77  -27.14  0.8649
    28.8  -27.17  0.8649
   28.83   -27.2  0.8649
   28.86  -27.23  0.8649
   28.89  -27.26  0.8649
   28.92  -27.28  0.8649
   28.95  -27.31  0.8649
   28.98  -27.34  0.8649
   29.01  -27.37  0.8649
   29.04   -27.4  0.8649
   29.07  -27.43  0.8649
    29.1  -27.45  0.8649
   29.13  -27.48  0.8649
   29.16  -27.51  0.8649
   29.19  -27.54  0.8649
   29.22  -27.57  0.8649
   29.25  -27.59  0.8649
   29.28  -27.62  0.8649
   29.31  -27.65  0.8649
   29.34  -27.68  0.8649
   29.37  -27.71  0.8649
    29.4  -27.74  0.8649
   29.43  -27.76  0.8649
   29.46  -27.79  0.8649
   29.49  -27.82  0.8649
   29.52  -27.85  0.8649
   29.55  -27.88  0.8649
   29.58  -27.91  0.8649
   29.61  -27.93  0.8649
   29.64  -27.96  0.8649
   29.67  -27.99  0.8649
    29.7  -28.02  0.8649
   29.73  -28.05  0.8649
   29.76  -28.08  0.8649
   29.79   -28.1  0.8649
   29.82  -28.13  0.8649
   29.85  -28.16  0.8649
   29.88  -28.19  0.8649
   29.91  -28.22  0.8649
   29.94  -28.25  0.8649
   29.97  -28.27  0.8649
      30   -28.3  0.8649
   30.03  -28.33  0.8649
   30.06  -28.36  0.8649
   30.09  -28.39  0.8649
   30.12  -28.42  0.8649
   30.15  -28.44  0.8649
   30.18  -28.47  0.8649
   30.21   -28.5  0.8649
   30.24  -28.53  0.8649
   30.27  -28.56  0.8649
    30.3  -28.59  0.8649
   30.33  -28.61  0.8649
   30.36  -28.64  0.8649
   30.39  -28.67  0.8649
   30.42   -28.7  0.8649
   30.45  -28.73  0.8649
   30.48  -28.76  0.8649
   30.51  -28.78  0.8649
   30.54  -28.81  0.8649
   30.57  -28.84  0.8649
    30.6  -28.87  0.8649
   30.63   -28.9  0.8649
   30.66  -28.93  0.8649
   30.69  -28.95  0.8649
   30.72  -28.98  0.8649
   30.75  -29.01  0.8649
   30.78  -29.04  0.8649
   30.81  -29.07  0.8649
   30.84  -29.09  0.8649
   30.87  -29.12  0.8649
    30.9  -29.15  0.8649
   30.93  -29.18  0.8649
   30.96  -29.21  0.8649
   30.99  -29.24  0.8649
   31.02  -29.26  0.8649
   31.05  -29.29  0.8649
   31.08  -29.32  0.8649
   31.11  -29.35  0.8649
   31.14  -29.38  0.8649
   31.17  -29.41  0.8649
    31.2  -29.43  0.8649
   31.23  -29.46  0.8649
   31.26  -29.49  0.8649
   31.29  -29.52  0.8649
   31.32  -29.55  0.8649
   31.35  -29.58  0.8649
   31.38   -29.6  0.8649
   31.41  -29.63  0.8649
   31.44  -29.66  0.8649
   31.47  -29.69  0.8649
    31.5  -29.72  0.8649
   31.53  -29.75  0.8649
   31.56  -29.77  0.8649
   31.59   -29.8  0.8649
   31.62  -29.83  0.8649
   31.65  -29.86  0.8649
   31.68  -29.89  0.8649
   31.71  -29.92  0.8649
   31.74  -29.94  0.8649
   31.77  -29.97  0.8649
    31.8     -30  0.8649
   31.83  -30.03  0.8649
   31.86  -30.06  0.8649
   31.89  -30.09  0.8649
   31.92  -30.11  0.8649
   31.95  -30.14  0.8649
   31.98  -30.17  0.8649
   32.01   -30.2  0.8649
   32.04  -30.23  0.8649
   32.07  -30.26  0.8649
    32.1  -30.28  0.8649
   32.13  -30.31  0.8649
   32.16  -30.34  0.8649
   32.19  -30.37  0.8649
   32.22   -30.4  0.8649
   32.25  -30.43  0.8649
   32.28  -30.45  0.8649
   32.31  -30.48  0.8649
   32.34  -30.51  0.8649
   32.37  -30.54  0.8649
    32.4  -30.57  0.8649
   32.43  -30.59  0.8649
   32.46  -30.62  0.8649
   32.49  -30.65  0.8649
   32.52  -30.68  0.8649
   32.55  -30.71  0.8649
   32.58  -30.74  0.8649
   32.61  -30.76  0.8649
   32.64  -30.79  0.8649
   32.67  -30.82  0.8649
    32.7  -30.85  0.8649
   32.73  -30.88  0.8649
   32.76  -30.91  0.8649
   32.79  -30.93  0.8649
   32.82  -30.96  0.8649
   32.85  -30.99  0.8649
   32.88  -31.02  0.8649
   32.91  -31.05  0.8649
   32.94  -31.08  0.8649
   32.97   -31.1  0.8649
      33  -31.13  0.8649
   33.03  -31.16  0.8649
   33.06  -31.19  0.8649
   33.09  -31.22  0.8649
   33.12  -31.25  0.8649
   33.15  -31.27  0.8649
   33.18   -31.3  0.8649
   33.21  -31.33  0.8649
   33.24  -31.36  0.8649
   33.27  -31.39  0.8649
    33.3  -31.42  0.8649
   33.33  -31.44  0.8649
   33.36  -31.47  0.8649
   33.39   -31.5  0.8649
   33.42  -31.53  0.8649
   33.45  -31.56  0.8649
   33.48  -31.59  0.8649
   33.51  -31.61  0.8649
   33.54  -31.64  0.8649
   33.57  -31.67  0.8649
    33.6   -31.7  0.8649
   33.63  -31.73  0.8649
   33.66  -31.76  0.8649
   33.69  -31.78  0.8649
   33.72  -31.81  0.8649
   33.75  -31.84  0.8649
   33.78  -31.87  0.8649
   33.81   -31.9  0.8649
   33.84  -31.93  0.8649
   33.87  -31.95  0.8649
    33.9  -31.98  0.8649
   33.93  -32.01  0.8649
   33.96  -32.04  0.8649
   33.99  -32.07  0.8649
   34.02  -32.09  0.8649
   34.05  -32.12  0.8649
   34.08  -32.15  0.8649
   34.11  -32.18  0.8649
   34.14  -32.21  0.8649
   34.17  -32.24  0.8649
    34.2  -32.26  0.8649
   34.23  -32.29  0.8649
   34.26  -32.32  0.8649
   34.29  -32.35  0.8649
   34.32  -32.38  0.8649
   34.35  -32.41  0.8649
   34.38  -32.43  0.8649
   34.41  -32.46  0.8649
   34.44  -32.49  0.8649
   34.47  -32.52  0.8649
    34.5  -32.55  0.8649
   34.53  -32.58  0.8649
   34.56   -32.6  0.8649
   34.59  -32.63  0.8649
   34.62  -32.66  0.8649
   34.65  -32.69  0.8649
   34.68  -32.72  0.8649
   34.71  -32.75  0.8649
   34.74  -32.77  0.8649
   34.77   -32.8  0.8649
    34.8  -32.83  0.8649
   34.83  -32.86  0.8649
   34.86  -32.89  0.8649
   34.89  -32.92  0.8649
   34.92  -32.94  0.8649
   34.95  -32.97  0.8649
   34.98     -33  0.8649
   35.01  -33.03  0.8649
   35.04  -33.06  0.8649
   35.07  -33.09  0.8649
    35.1  -33.11  0.8649
   35.13  -33.14  0.8649
   35.16  -33.17  0.8649
   35.19   -33.2  0.8649
   35.22  -33.23  0.8649
   35.25  -33.26  0.8649
   35.28  -33.28  0.8649
   35.31  -33.31  0.8649
   35.34  -33.34  0.8649
   35.37  -33.37  0.8649
    35.4   -33.4  0.8649
   35.43  -33.43  0.8649
   35.46  -33.45  0.8649
   35.49  -33.48  0.8649
   35.52  -33.51  0.8649
   35.55  -33.54  0.8649
   35.58  -33.57  0.8649
   35.61  -33.59  0.8649
   35.64  -33.62  0.8649
   35.67  -33.65  0.8649
    35.7  -33.68  0.8649
   35.73  -33.71  0.8649
   35.76  -33.74  0.8649
   35.79  -33.76  0.8649
   35.82  -33.79  0.8649
   35.85  -33.82  0.8649
   35.88  -33.85  0.8649
   35.91  -33.88  0.8649
   35.94  -33.91  0.8649
   35.97  -33.93  0.8649
      36  -33.96  0.8649
   36.03  -33.99  0.8649
   36.06  -34.02  0.8649
   36.09  -34.05  0.8649
   36.12  -34.08  0.8649
   36.15   -34.1  0.8649
   36.18  -34.13  0.8649
   36.21  -34.16  0.8649
   36.24  -34.19  0.8649
   36.27  -34.22  0.8649
    36.3  -34.25  0.8649
   36.33  -34.27  0.8649
   36.36   -34.3  0.8649
   36.39  -34.33  0.8649
   36.42  -34.36  0.8649
   36.45  -34.39  0.8649
   36.48  -34.42  0.8649
   36.51  -34.44  0.8649
   36.54  -34.47  0.8649
   36.57   -34.5  0.8649
    36.6  -34.53  0.8649
   36.63  -34.56  0.8649
   36.66  -34.59  0.8649
   36.69  -34.61  0.8649
   36.72  -34.64  0.8649
   36.75  -34.67  0.8649
   36.78   -34.7  0.8649
   36.81  -34.73  0.8649
   36.84  -34.76  0.8649
   36.87  -34.78  0.8649
    36.9  -34.81  0.8649
   36.93  -34.84  0.8649
   36.96  -34.87  0.8649
   36.99   -34.9  0.8649
   37.02  -34.93  0.8649
   37.05  -34.95  0.8649
   37.08  -34.98  0.8649
   37.11  -35.01  0.8649
   37.14  -35.04  0.8649
   37.17  -35.07  0.8649
    37.2  -35.09  0.8649
   37.23  -35.12  0.8649
   37.26  -35.15  0.8649
   37.29  -35.18  0.8649
   37.32  -35.21  0.8649
   37.35  -35.24  0.8649
   37.38  -35.26  0.8649
   37.41  -35.29  0.8649
   37.44  -35.32  0.8649
   37.47  -35.35  0.8649
    37.5  -35.38  0.8649
   37.53  -35.41  0.8649
   37.56  -35.43  0.8649
   37.59  -35.46  0.8649
   37.62  -35.49  0.8649
   37.65  -35.52  0.8649
   37.68  -35.55  0.8649
   37.71  -35.58  0.8649
   37.74   -35.6  0.8649
   37.77  -35.63  0.8649
    37.8  -35.66  0.8649
   37.83  -35.69  0.8649
   37.86  -35.72  0.8649
   37.89  -35.75  0.8649
   37.92  -35.77  0.8649
   37.95   -35.8  0.8649
   37.98  -35.83  0.8649
   38.01  -35.86  0.8649
   38.04  -35.89  0.8649
   38.07  -35.92  0.8649
    38.1  -35.94  0.8649
   38.13  -35.97  0.8649
   38.16     -36  0.8649
   38.19  -36.03  0.8649
   38.22  -36.06  0.8649
   38.25  -36.09  0.8649
   38.28  -36.11  0.8649
   38.31  -36.14  0.8649
   38.34  -36.17  0.8649
   38.37   -36.2  0.8649
    38.4  -36.23  0.8649
   38.43  -36.26  0.8649
   38.46  -36.28  0.8649
   38.49  -36.31  0.8649
   38.52  -36.34  0.8649
   38.55  -36.37  0.8649
   38.58   -36.4  0.8649
   38.61  -36.43  0.8649
   38.64  -36.45  0.8649
   38.67  -36.48  0.8649
    38.7  -36.51  0.8649
   38.73  -36.54  0.8649
   38.76  -36.57  0.8649
   38.79   -36.6  0.8649
   38.82  -36.62  0.8649
   38.85  -36.65  0.8649
   38.88  -36.68  0.8649
   38.91  -36.71  0.8649
   38.94  -36.74  0.8649
   38.97  -36.76  0.8649
      39  -36.79  0.8649
   39.03  -36.82  0.8649
   39.06  -36.85  0.8649
   39.09  -36.88  0.8649
   39.12  -36.91  0.8649
   39.15  -36.93  0.8649
   39.18  -36.96  0.8649
   39.21  -36.99  0.8649
   39.24  -37.02  0.8649
   39.27  -37.05  0.8649
    39.3  -37.08  0.8649
   39.33   -37.1  0.8649
   39.36  -37.13  0.8649
   39.39  -37.16  0.8649
   39.42  -37.19  0.8649
   39.45  -37.22  0.8649
   39.48  -37.25  0.8649
   39.51  -37.27  0.8649
   39.54   -37.3  0.8649
   39.57  -37.33  0.8649
    39.6  -37.36  0.8649
   39.63  -37.39  0.8649
   39.66  -37.42  0.8649
   39.69  -37.44  0.8649
   39.72  -37.47  0.8649
   39.75   -37.5  0.8649
   39.78  -37.53  0.8649
   39.81  -37.56  0.8649
   39.84  -37.59  0.8649
   39.87  -37.61  0.8649
    39.9  -37.64  0.8649
   39.93  -37.67  0.8649
   39.96   -37.7  0.8649
   39.99  -37.73  0.8649
   40.02  -37.76  0.8649
   40.05  -37.78  0.8649
   40.08  -37.81  0.8649
   40.11  -37.84  0.8649
   40.14  -37.87  0.8649
   40.17   -37.9  0.8649
    40.2  -37.93  0.8649
   40.23  -37.95  0.8649
   40.26  -37.98  0.8649
   40.29  -38.01  0.8649
   40.32  -38.04  0.8649
   40.35  -38.07  0.8649
   40.38   -38.1  0.8649
   40.41  -38.12  0.8649
   40.44  -38.15  0.8649
   40.47  -38.18  0.8649
    40.5  -38.21  0.8649
   40.53  -38.24  0.8649
   40.56  -38.26  0.8649
   40.59  -38.29  0.8649
   40.62  -38.32  0.8649
   40.65  -38.35  0.8649
   40.68  -38.38  0.8649
   40.71  -38.41  0.8649
   40.74  -38.43  0.8649
   40.77  -38.46  0.8649
    40.8  -38.49  0.8649
   40.83  -38.52  0.8649
   40.86  -38.55  0.8649
   40.89  -38.58  0.8649
   40.92   -38.6  0.8649
   40.95  -38.63  0.8649
   40.98  -38.66  0.8649
   41.01  -38.69  0.8649
   41.04  -38.72  0.8649
   41.07  -38.75  0.8649
    41.1  -38.77  0.8649
   41.13   -38.8  0.8649
   41.16  -38.83  0.8649
   41.19  -38.86  0.8649
   41.22  -38.89  0.8649
   41.25  -38.92  0.8649
   41.28  -38.94  0.8649
   41.31  -38.97  0.8649
   41.34     -39  0.8649
   41.37  -39.03  0.8649
    41.4  -39.06  0.8649
   41.43  -39.09  0.8649
   41.46  -39.11  0.8649
   41.49  -39.14  0.8649
   41.52  -39.17  0.8649
   41.55   -39.2  0.8649
   41.58  -39.23  0.8649
   41.61  -39.26  0.8649
   41.64  -39.28  0.8649
   41.67  -39.31  0.8649
    41.7  -39.34  0.8649
   41.73  -39.37  0.8649
   41.76   -39.4  0.8649
   41.79  -39.43  0.8649
   41.82  -39.45  0.8649
   41.85  -39.48  0.8649
   41.88  -39.51  0.8649
   41.91  -39.54  0.8649
   41.94  -39.57  0.8649
   41.97   -39.6  0.8649
      42  -39.62  0.8649
   42.03  -39.65  0.8649
   42.06  -39.68  0.8649
   42.09  -39.71  0.8649
   42.12  -39.74  0.8649
   42.15  -39.76  0.8649
   42.18  -39.79  0.8649
   42.21  -39.82  0.8649
   42.24  -39.85  0.8649
   42.27  -39.88  0.8649
    42.3  -39.91  0.8649
   42.33  -39.93  0.8649
   42.36  -39.96  0.8649
   42.39  -39.99  0.8649
   42.42  -40.02  0.8649
   42.45  -40.05  0.8649
   42.48  -40.08  0.8649
   42.51   -40.1  0.8649
   42.54  -40.13  0.8649
   42.57  -40.16  0.8649
    42.6  -40.19  0.8649
   42.63  -40.22  0.8649
   42.66  -40.25  0.8649
   42.69  -40.27  0.8649
   42.72   -40.3  0.8649
   42.75  -40.33  0.8649
   42.78  -40.36  0.8649
   42.81  -40.39  0.8649
   42.84  -40.42  0.8649
   42.87  -40.44  0.8649
    42.9  -40.47  0.8649
   42.93   -40.5  0.8649
   42.96  -40.53  0.8649
   42.99  -40.56  0.8649
   43.02  -40.59  0.8649
   43.05  -40.61  0.8649
   43.08  -40.64  0.8649
   43.11  -40.67  0.8649
   43.14   -40.7  0.8649
   43.17  -40.73  0.8649
    43.2  -40.76  0.8649
   43.23  -40.78  0.8649
   43.26  -40.81  0.8649
   43.29  -40.84  0.8649
   43.32  -40.87  0.8649
   43.35   -40.9  0.8649
   43.38  -40.93  0.8649
   43.41  -40.95  0.8649
   43.44  -40.98  0.8649
   43.47  -41.01  0.8649
    43.5  -41.04  0.8649
   43.53  -41.07  0.8649
   43.56   -41.1  0.8649
   43.59  -41.12  0.8649
   43.62  -41.15  0.8649
   43.65  -41.18  0.8649
   43.68  -41.21  0.8649
   43.71  -41.24  0.8649
   43.74  -41.26  0.8649
   43.77  -41.29  0.8649
    43.8  -41.32  0.8649
   43.83  -41.35  0.8649
   43.86  -41.38  0.8649
   43.89  -41.41  0.8649
   43.92  -41.43  0.8649
   43.95  -41.46  0.8649
   43.98  -41.49  0.8649
   44.01  -41.52  0.8649
   44.04  -41.55  0.8649
   44.07  -41.58  0.8649
    44.1   -41.6  0.8649
   44.13  -41.63  0.8649
   44.16  -41.66  0.8649
   44.19  -41.69  0.8649
   44.22  -41.72  0.8649
   44.25  -41.75  0.8649
   44.28  -41.77  0.8649
   44.31   -41.8  0.8649
   44.34  -41.83  0.8649
   44.37  -41.86  0.8649
    44.4  -41.89  0.8649
   44.43  -41.92  0.8649
   44.46  -41.94  0.8649
   44.49  -41.97  0.8649
   44.52     -42  0.8649
   44.55  -42.03  0.8649
   44.58  -42.06  0.8649
   44.61  -42.09  0.8649
   44.64  -42.11  0.8649
   44.67  -42.14  0.8649
    44.7  -42.17  0.8649
   44.73   -42.2  0.8649
   44.76  -42.23  0.8649
   44.79  -42.26  0.8649
   44.82  -42.28  0.8649
   44.85  -42.31  0.8649
   44.88  -42.34  0.8649
   44.91  -42.37  0.8649
   44.94   -42.4  0.8649
